Scan Count	Temperature [ITS-90, deg C]	Conductivity [S/m]	Pressure, Strain Gauge [db]	Depth [salt water, m]	Oxygen Saturation, Weiss [ml/l]	Salinity, Practical [PSU]
1	19.07978	0.0063967	0.0511	0.0509	6.468216	0.03809
2	19.07689	0.0064183	0.0481	0.0478	6.468591	0.03820
3	19.06994	0.0064090	0.0542	0.0539	6.469505	0.03816
4	19.06046	0.0064090	0.0511	0.0508	6.470749	0.03816
5	19.05496	0.0064121	0.0541	0.0538	6.471470	0.03818
6	19.05510	0.0064090	0.0511	0.0508	6.471452	0.03817
7	19.05525	0.0064028	0.0572	0.0569	6.471434	0.03814
8	19.05706	0.0064090	0.0480	0.0478	6.471195	0.03817
9	19.05698	0.0064028	0.0572	0.0569	6.471206	0.03814
10	19.05858	0.0064152	0.0511	0.0508	6.470995	0.03820
11	19.05894	0.0064090	0.0511	0.0508	6.470948	0.03817
12	19.06031	0.0064121	0.0541	0.0538	6.470767	0.03818
13	19.06104	0.0064090	0.0511	0.0508	6.470673	0.03816
14	19.06183	0.0063936	0.0541	0.0538	6.470572	0.03809
15	19.06067	0.0063998	0.0571	0.0568	6.470722	0.03812
16	19.05286	0.0063781	0.0481	0.0478	6.471752	0.03801
17	19.03724	0.0064090	0.0540	0.0537	6.473798	0.03817
18	19.02957	0.0063905	0.0511	0.0508	6.474808	0.03809
19	19.00803	0.0063874	0.0542	0.0539	6.477640	0.03808
20	18.98376	0.0063905	0.0541	0.0538	6.480832	0.03811
21	18.95829	0.0064028	0.0541	0.0538	6.484184	0.03818
22	18.94098	0.0064245	0.0541	0.0538	6.486460	0.03830
23	18.93817	0.0064430	0.0541	0.0538	6.486827	0.03839
24	18.94386	0.0064338	0.0480	0.0478	6.486078	0.03834
25	18.95093	0.0064338	0.0540	0.0538	6.485147	0.03834
26	18.95677	0.0064338	0.0571	0.0568	6.484377	0.03834
27	18.96456	0.0064338	0.0510	0.0507	6.483351	0.03833
28	18.97128	0.0064338	0.0571	0.0568	6.482467	0.03833
29	18.97727	0.0064245	0.0510	0.0508	6.481680	0.03828
30	18.98499	0.0064245	0.0510	0.0507	6.480664	0.03828
31	18.99034	0.0064276	0.0540	0.0538	6.479960	0.03829
32	18.99597	0.0064245	0.0509	0.0507	6.479219	0.03827
33	18.99987	0.0064430	0.0571	0.0568	6.478703	0.03836
34	19.00312	0.0064338	0.0540	0.0538	6.478277	0.03831
35	19.00001	0.0066409	0.0510	0.0507	6.478645	0.03936
36	18.97857	0.0069100	0.0571	0.0568	6.481415	0.04072
37	18.96132	0.0070615	0.0540	0.0538	6.483656	0.04150
38	18.96016	0.0071667	0.0511	0.0508	6.483788	0.04203
39	18.96045	0.0072409	0.0571	0.0568	6.483735	0.04241
40	18.95865	0.0072873	0.0541	0.0538	6.483964	0.04264
41	18.96074	0.0073399	0.0479	0.0477	6.483678	0.04291
42	18.95850	0.0074450	0.0540	0.0538	6.483952	0.04344
43	18.96088	0.0075286	0.0571	0.0568	6.483622	0.04387
44	18.96622	0.0075904	0.0540	0.0537	6.482907	0.04418
45	18.97019	0.0077018	0.0571	0.0568	6.482362	0.04474
46	18.97402	0.0077606	0.0601	0.0598	6.481847	0.04504
47	18.97821	0.0078225	0.0602	0.0598	6.481284	0.04535
48	18.98246	0.0078781	0.0571	0.0568	6.480713	0.04563
49	18.97835	0.0079338	0.0570	0.0567	6.481243	0.04592
50	18.96752	0.0079957	0.0541	0.0538	6.482656	0.04624
51	18.95497	0.0080576	0.0541	0.0538	6.484297	0.04656
52	18.93788	0.0081071	0.0540	0.0538	6.486540	0.04683
53	18.93182	0.0081659	0.0541	0.0538	6.487326	0.04713
54	18.93341	0.0081968	0.0571	0.0568	6.487111	0.04729
55	18.91380	0.1279756	0.0936	0.0931	6.463381	0.73001
56	18.31126	2.6765232	0.2001	0.1990	5.862522	19.10879
57	16.66333	2.8173807	0.3066	0.3049	5.987916	21.04994
58	15.50827	2.9865645	0.3857	0.3836	6.053984	23.10491
59	14.66173	2.9765140	0.4618	0.4592	6.144833	23.52075
60	14.10604	2.9837791	0.5166	0.5137	6.200984	23.92384
61	13.79465	2.9903997	0.5348	0.5319	6.231883	24.17673
62	13.64216	2.9979042	0.5287	0.5258	6.245610	24.34001
63	13.56526	2.9999138	0.5318	0.5288	6.253158	24.40688
64	13.51828	3.0013408	0.5287	0.5258	6.257705	24.44964
65	13.49019	3.0067824	0.5257	0.5228	6.258827	24.51650
66	13.48477	3.0302300	0.5318	0.5288	6.251237	24.73095
67	13.49850	3.0348923	0.5287	0.5258	6.248145	24.76404
68	13.48268	3.0073658	0.5926	0.5893	6.259431	24.52653
69	13.45056	3.0200314	0.7630	0.7588	6.258461	24.66111
70	13.39937	3.0329854	0.9365	0.9314	6.259424	24.81095
71	13.35487	3.0434943	1.0004	0.9949	6.260510	24.93480
72	13.38002	3.0429143	1.0156	1.0100	6.258020	24.91314
73	13.54305	3.0494938	1.0095	1.0040	6.238320	24.86643
74	13.71457	3.0579797	0.9973	0.9918	6.217174	24.83156
75	13.83603	3.0556923	0.9821	0.9767	6.205117	24.73284
76	13.86588	3.0527648	0.9730	0.9676	6.202967	24.68756
77	13.75344	3.0545013	0.9821	0.9767	6.214256	24.77533
78	13.59847	3.0610812	0.9821	0.9767	6.228410	24.93465
79	13.46538	3.0673724	0.9943	0.9888	6.240364	25.07816
80	13.36100	3.0721981	0.9852	0.9797	6.249791	25.19038
81	13.28366	3.0775352	0.9912	0.9858	6.256163	25.28985
82	13.23527	3.0823419	0.9852	0.9797	6.259633	25.36561
83	13.19879	3.0870409	0.9852	0.9797	6.261867	25.43263
84	13.17150	3.0913557	0.9821	0.9767	6.263254	25.49013
85	13.14856	3.0915585	0.9730	0.9676	6.265631	25.50734
86	13.12143	3.0903863	0.9791	0.9737	6.268945	25.51483
87	13.09633	3.0929221	0.9882	0.9828	6.270728	25.55479
88	13.07642	3.0958209	0.9852	0.9798	6.271827	25.59463
89	13.06742	3.0998514	0.9821	0.9767	6.271356	25.63750
90	13.06754	3.1016768	0.9882	0.9828	6.270694	25.65408
91	13.06121	3.0971725	0.9852	0.9798	6.272972	25.61722
92	13.04217	3.0953238	0.9791	0.9737	6.275667	25.61316
93	13.02418	3.0973265	0.9791	0.9737	6.276879	25.64360
94	13.01749	3.0977320	0.9912	0.9858	6.277450	25.65181
95	13.01646	3.0975293	0.9943	0.9888	6.277633	25.65065
96	13.01640	3.1014314	1.0034	0.9979	6.276248	25.68637
97	13.03032	3.1153528	1.0065	1.0009	6.269800	25.80426
98	13.06802	3.1165346	1.0064	1.0009	6.265359	25.78947
99	13.08282	3.1190227	0.9912	0.9858	6.262899	25.80217
100	13.14466	3.1229098	0.9882	0.9828	6.254943	25.79573
101	13.19207	3.1216645	0.9852	0.9797	6.250349	25.75229
102	13.19952	3.1176295	0.9852	0.9797	6.250983	25.71051
103	13.17339	3.1121134	0.9882	0.9828	6.255710	25.67789
104	13.13503	3.1089632	0.9882	0.9828	6.260909	25.67505
105	13.10614	3.1101141	0.9882	0.9828	6.263578	25.70504
106	13.09786	3.1133636	0.9761	0.9707	6.263307	25.74031
107	13.10498	3.1171254	0.9821	0.9767	6.261213	25.76983
108	13.11406	3.1237113	0.9943	0.9888	6.257911	25.82379
109	13.13125	3.1310980	1.0065	1.0009	6.253467	25.87955
110	13.16088	3.1355837	1.0064	1.0009	6.248735	25.90033
111	13.17761	3.1319797	0.9882	0.9828	6.248238	25.85610
112	13.16930	3.1270704	0.9760	0.9707	6.250854	25.81697
113	13.14685	3.1250361	0.9669	0.9616	6.253957	25.81364
114	13.12777	3.1253754	0.9791	0.9737	6.255863	25.82968
115	13.11351	3.1289456	0.9882	0.9828	6.256112	25.87196
116	13.10906	3.1402393	1.0035	0.9979	6.252578	25.97815
117	13.12265	3.1496068	1.0004	0.9949	6.247818	26.05446
118	13.13990	3.1472081	0.9943	0.9888	6.246842	26.02075
119	13.13692	3.1176917	0.9912	0.9858	6.257615	25.75337
120	13.11120	3.1005577	0.9944	0.9889	6.266430	25.61444
121	13.09755	3.1048304	0.9974	0.9919	6.266370	25.66262
122	13.12625	3.1268304	1.0004	0.9949	6.255510	25.84399
123	13.14881	3.1383000	1.0004	0.9949	6.249054	25.93334
124	13.13588	3.1395968	0.9974	0.9919	6.249964	25.95399
125	13.12411	3.1401527	0.9913	0.9858	6.251014	25.96709
126	13.12405	3.1414682	0.9822	0.9768	6.250554	25.97915
127	13.12491	3.1396463	0.9791	0.9737	6.251109	25.96193
128	13.12125	3.0947518	0.9852	0.9798	6.267417	25.55475
129	13.11510	3.0854036	0.9882	0.9828	6.271391	25.47366
130	13.11436	3.1061585	1.0004	0.9949	6.264105	25.66340
131	13.12405	3.1007788	1.0035	0.9979	6.264980	25.60781
132	13.13984	3.0989658	1.0004	0.9949	6.263938	25.58066
133	13.16149	3.1190527	1.0065	1.0009	6.254520	25.74915
134	13.19653	3.1528340	1.0035	0.9980	6.238868	26.03339
135	13.23173	3.1568116	0.9944	0.9889	6.233753	26.04561
136	13.26891	3.1576529	0.9821	0.9767	6.229539	26.02789
137	13.29836	3.1531175	0.9852	0.9798	6.228033	25.96654
138	13.30663	3.1494256	0.9852	0.9798	6.228459	25.92734
139	13.30185	3.1539402	0.9852	0.9798	6.227376	25.97165
140	13.30307	3.1627350	0.9883	0.9829	6.224159	26.05083
141	13.32311	3.1671946	0.9944	0.9889	6.220489	26.07772
142	13.34861	3.1685203	1.0126	1.0071	6.217349	26.07236
143	13.36935	3.1703917	1.0126	1.0070	6.214519	26.07521
144	13.38739	3.1717739	1.0096	1.0041	6.212145	26.07545
145	13.40968	3.1697591	1.0005	0.9950	6.210515	26.04196
146	13.42615	3.1706949	0.9975	0.9920	6.208464	26.03924
147	13.43974	3.1653844	0.9822	0.9768	6.208894	25.98183
148	13.44066	3.1520337	0.9852	0.9798	6.213454	25.86018
149	13.41312	3.1452709	0.9914	0.9859	6.218706	25.81748
150	13.37235	3.1493940	1.0005	0.9950	6.221552	25.88246
151	13.36204	3.1627653	1.0066	1.0011	6.217955	26.01089
152	13.37726	3.1667107	1.0066	1.0010	6.214977	26.03637
153	13.38076	3.1664133	1.0096	1.0041	6.214715	26.03128
154	13.43888	3.1602632	0.9945	0.9890	6.210771	25.93598
155	13.48028	3.1511242	0.9823	0.9769	6.209615	25.82518
156	13.50435	3.1461290	0.9853	0.9799	6.208828	25.76375
157	13.52401	3.1537461	1.0005	0.9950	6.204121	25.81940
158	13.54601	3.1639091	1.0036	0.9980	6.198292	25.89644
159	13.55928	3.1671859	1.0005	0.9950	6.195772	25.91710
160	13.55206	3.1687909	1.0066	1.0011	6.195968	25.93650
161	13.56119	3.1694291	0.9945	0.9890	6.194794	25.93609
162	13.57810	3.1648131	0.9823	0.9769	6.194629	25.88295
163	13.57266	3.1518221	0.9854	0.9800	6.199696	25.76926
164	13.53966	3.1478036	0.9823	0.9769	6.204544	25.75514
165	13.50614	3.1584426	0.9976	0.9921	6.204360	25.87395
166	13.50084	3.1666785	1.0097	1.0042	6.202051	25.95208
167	13.49555	3.1680107	1.0097	1.0042	6.202142	25.96773
168	13.49493	3.1652042	1.0159	1.0103	6.203182	25.94274
169	13.50331	3.1640582	1.0098	1.0043	6.202705	25.92669
170	13.51181	3.1660093	1.0067	1.0012	6.201138	25.93859
171	13.52660	3.1683697	1.0037	0.9982	6.198773	25.94993
172	13.54645	3.1676446	0.9824	0.9770	6.196951	25.92994
173	13.56292	3.1621626	0.9915	0.9861	6.197132	25.86924
174	13.57273	3.1597232	0.9855	0.9801	6.196953	25.84058
175	13.57606	3.1654139	0.9824	0.9770	6.194634	25.88975
176	13.58180	3.1713255	0.9885	0.9831	6.191988	25.93928
177	13.59643	3.1721127	0.9946	0.9892	6.190191	25.93649
178	13.60823	3.1688523	1.0129	1.0073	6.190089	25.89907
179	13.60860	3.1707860	1.0251	1.0194	6.189382	25.91627
180	13.61027	3.1758640	1.0191	1.0135	6.187453	25.96101
181	13.62404	3.1764097	1.0007	0.9952	6.185830	25.95661
182	13.67148	3.1738479	0.9947	0.9892	6.181781	25.90145
183	13.76088	3.1647493	0.9795	0.9742	6.175617	25.75941
184	13.83074	3.1543678	0.9734	0.9680	6.171914	25.61951
185	13.83827	3.1515225	0.9886	0.9832	6.172106	25.58898
186	13.79055	3.1608972	0.9948	0.9893	6.173856	25.70493
187	13.77658	3.1687762	1.0039	0.9984	6.172606	25.78508
188	13.76386	3.1703877	1.0008	0.9953	6.173373	25.80811
189	13.78298	3.1698792	1.0131	1.0075	6.171564	25.79070
190	13.84380	3.1636645	1.0070	1.0014	6.167382	25.69420
191	13.86924	3.1585751	1.0070	1.0015	6.166481	25.63160
192	13.87889	3.1600605	1.0040	0.9985	6.164974	25.63850
193	13.88542	3.1659559	1.0009	0.9954	6.162286	25.68698
194	13.90304	3.1693946	1.0009	0.9954	6.159290	25.70604
195	13.91519	3.1692395	0.9980	0.9925	6.158086	25.69655
196	13.91432	3.1688801	0.9949	0.9894	6.158299	25.69391
197	13.90572	3.1706279	0.9857	0.9803	6.158593	25.71531
198	13.90242	3.1723761	0.9949	0.9895	6.158339	25.73317
199	13.90585	3.1717189	0.9888	0.9834	6.158208	25.72500
200	13.90778	3.1658937	1.0010	0.9955	6.159992	25.67152
201	13.89694	3.1646859	1.0041	0.9986	6.161526	25.66792
202	13.88057	3.1718370	1.0132	1.0076	6.160783	25.74294
203	13.87739	3.1747698	1.0133	1.0077	6.160111	25.77136
204	13.88816	3.1751852	1.0103	1.0047	6.158856	25.76788
205	13.96445	3.1698464	0.9981	0.9926	6.152789	25.66916
206	14.02927	3.1629690	0.9859	0.9805	6.148426	25.56467
207	14.05253	3.1577624	0.9829	0.9775	6.147786	25.50282
208	14.05090	3.1595388	0.9890	0.9836	6.147353	25.51974
209	14.05309	3.1670507	0.9982	0.9927	6.144587	25.58532
210	14.06385	3.1707503	1.0103	1.0047	6.142228	25.61119
211	14.06160	3.1717793	1.0133	1.0078	6.142112	25.62187
212	14.05584	3.1715066	1.0134	1.0078	6.142797	25.62325
213	14.05960	3.1713206	1.0134	1.0079	6.142474	25.61910
214	14.06473	3.1696904	1.0074	1.0018	6.142496	25.60116
215	14.06441	3.1650806	0.9952	0.9897	6.144086	25.56024
216	14.05046	3.1614641	1.0043	0.9988	6.146748	25.53721
217	14.02714	3.1648085	1.0013	0.9958	6.148023	25.58249
218	14.01614	3.1709925	1.0013	0.9958	6.147064	25.64503
219	14.01546	3.1728647	1.0074	1.0019	6.146501	25.66221
220	14.02164	3.1712652	1.0043	0.9988	6.146404	25.64381
221	14.04452	3.1674659	0.9923	0.9868	6.145330	25.59470
222	14.06573	3.1629687	0.9892	0.9838	6.144664	25.54054
223	14.08701	3.1598108	0.9984	0.9929	6.143535	25.49832
224	14.07906	3.1598109	0.9984	0.9929	6.144355	25.50357
225	14.05240	3.1659232	1.0167	1.0111	6.145040	25.57571
226	14.05096	3.1704281	1.0167	1.0111	6.143665	25.61686
227	14.06279	3.1714445	1.0106	1.0050	6.142103	25.61809
228	14.06904	3.1683951	1.0107	1.0051	6.142489	25.58674
229	14.07079	3.1636622	1.0107	1.0052	6.143907	25.54337
230	14.07211	3.1602567	0.9985	0.9930	6.144922	25.51213
231	14.05953	3.1600773	0.9955	0.9900	6.146280	25.51884
232	14.03414	3.1638422	0.9955	0.9900	6.147627	25.56923
233	14.02570	3.1674909	1.0016	0.9961	6.147263	25.60740
234	14.03452	3.1683025	1.0047	0.9992	6.146079	25.60880
235	14.03564	3.1669456	1.0138	1.0082	6.146423	25.59594
236	14.02146	3.1672493	1.0199	1.0143	6.147784	25.60806
237	14.00602	3.1703294	1.0138	1.0083	6.148333	25.64582
238	14.00577	3.1710980	1.0139	1.0083	6.148098	25.65286
239	14.01208	3.1674911	1.0139	1.0083	6.148669	25.61644
240	14.00665	3.1637248	1.0199	1.0143	6.150507	25.58640
241	13.98879	3.1672187	1.0170	1.0114	6.151167	25.62947
242	13.97974	3.1713834	1.0139	1.0083	6.150688	25.67273
243	13.98442	3.1712904	1.0109	1.0054	6.150236	25.66878
244	13.99915	3.1650194	1.0079	1.0024	6.150842	25.60294
245	14.01814	3.1585178	1.0049	0.9994	6.151083	25.53228
246	14.01996	3.1602324	1.0170	1.0115	6.150315	25.54639
247	14.01190	3.1676398	1.0140	1.0085	6.148638	25.61789
248	14.00721	3.1706021	1.0019	0.9964	6.148118	25.64747
249	14.00815	3.1662892	0.9928	0.9873	6.149482	25.60832
250	14.02983	3.1583320	0.9989	0.9935	6.149938	25.52290
251	14.04321	3.1525347	0.9958	0.9903	6.150517	25.46234
252	14.01252	3.1537102	1.0111	1.0056	6.153293	25.49307
253	13.96089	3.1618242	1.0142	1.0086	6.155881	25.59977
254	13.93302	3.1668971	1.0142	1.0086	6.157040	25.66369
255	13.89283	3.1678827	1.0081	1.0026	6.160862	25.69930
256	13.91170	3.1614036	0.9990	0.9935	6.161115	25.62869
257	13.93470	3.1544595	0.9960	0.9906	6.161096	25.55127
258	13.95627	3.1517316	0.9991	0.9936	6.159788	25.51258
259	13.97137	3.1560306	1.0082	1.0027	6.156764	25.54102
260	13.97774	3.1617621	1.0174	1.0118	6.154160	25.58803
261	13.97181	3.1649887	1.0113	1.0057	6.153677	25.62082
262	13.94648	3.1655898	1.0083	1.0027	6.156092	25.64303
263	13.93713	3.1633601	1.0144	1.0089	6.157817	25.62929
264	13.93881	3.1589148	0.9992	0.9937	6.159155	25.58840
265	13.92286	3.1535874	1.0023	0.9967	6.162621	25.55132
266	13.88723	3.1510088	1.0022	0.9967	6.167196	25.55186
267	13.83827	3.1541635	1.0145	1.0089	6.171203	25.61266
268	13.80104	3.1614357	1.0205	1.0149	6.172581	25.70275
269	13.79055	3.1645384	1.0115	1.0059	6.172608	25.73764
270	13.78813	3.1626990	1.0054	0.9999	6.173490	25.72273
271	13.80707	3.1559333	1.0054	0.9999	6.173839	25.64932
272	13.83037	3.1509228	0.9963	0.9908	6.173132	25.58885
273	13.85076	3.1496303	1.0055	0.9999	6.171454	25.56371
274	13.82944	3.1524503	1.0055	1.0000	6.172706	25.60317
275	13.81577	3.1571955	1.0025	0.9970	6.172503	25.65485
276	13.82092	3.1611074	1.0055	1.0000	6.170629	25.68652
277	13.81583	3.1627297	1.0055	1.0000	6.170603	25.70449
278	13.80545	3.1605937	1.0026	0.9971	6.172412	25.69224
279	13.79999	3.1550795	0.9904	0.9850	6.174868	25.64638
280	13.78782	3.1505584	0.9965	0.9911	6.177683	25.61390
281	13.76306	3.1510100	1.0026	0.9971	6.180106	25.63445
282	13.73949	3.1562619	1.0148	1.0092	6.180756	25.69740
283	13.73378	3.1605635	1.0149	1.0093	6.179872	25.73991
284	13.72554	3.1620928	1.0118	1.0062	6.180204	25.75919
285	13.73552	3.1604458	1.0088	1.0033	6.179732	25.73769
286	13.76461	3.1556615	0.9966	0.9911	6.178348	25.67522
287	13.77466	3.1510099	0.9966	0.9911	6.178897	25.62672
288	13.76765	3.1493900	1.0059	1.0003	6.180183	25.61684
289	13.75084	3.1529582	1.0058	1.0003	6.180709	25.66012
290	13.75412	3.1579140	0.9998	0.9943	6.178666	25.70247
291	13.77267	3.1603216	1.0090	1.0034	6.175911	25.71171
292	13.78416	3.1607735	1.0120	1.0065	6.174563	25.70809
293	13.80583	3.1571647	1.0121	1.0065	6.173547	25.66120
294	13.82378	3.1522895	1.0060	1.0005	6.173349	25.60549
295	13.82092	3.1498099	0.9999	0.9944	6.174495	25.58515
296	13.80558	3.1531680	1.0060	1.0005	6.174941	25.62549
297	13.80837	3.1586066	1.0061	1.0006	6.172789	25.67245
298	13.82826	3.1612869	1.0031	0.9975	6.169807	25.68324
299	13.85624	3.1558400	0.9939	0.9885	6.168764	25.61574
300	13.89956	3.1478308	0.9909	0.9854	6.166999	25.51523
301	13.93164	3.1427757	0.9970	0.9916	6.165388	25.44878
302	13.91220	3.1483128	1.0092	1.0037	6.165522	25.51117
303	13.89115	3.1553013	1.0062	1.0007	6.165325	25.58770
304	13.87291	3.1564152	1.0062	1.0007	6.166837	25.60980
305	13.83994	3.1529326	1.0032	0.9977	6.171449	25.60051
306	13.80856	3.1496925	1.0124	1.0068	6.175821	25.59231
307	13.77677	3.1500824	1.0124	1.0068	6.178996	25.61698
308	13.76033	3.1519129	1.0094	1.0038	6.180080	25.64439
309	13.76740	3.1522716	1.0003	0.9948	6.179221	25.64289
310	13.78192	3.1511026	0.9973	0.9918	6.178110	25.62271
311	13.78751	3.1495691	0.9973	0.9918	6.178054	25.60522
312	13.78024	3.1473252	1.0034	0.9979	6.179579	25.58990
313	13.76225	3.1468185	1.0186	1.0131	6.181628	25.59733
314	13.74246	3.1515482	1.0156	1.0100	6.182066	25.65303
315	13.74209	3.1569240	1.0095	1.0040	6.180258	25.70161
316	13.76361	3.1574683	0.9974	0.9919	6.177831	25.69212
317	13.79614	3.1490311	0.9914	0.9859	6.177340	25.59465
318	13.83572	3.1400837	1.0005	0.9950	6.176282	25.48811
319	13.82440	3.1379659	1.0158	1.0102	6.178185	25.47661
320	13.75543	3.1475047	1.0219	1.0162	6.182104	25.60804
321	13.71253	3.1544432	1.0097	1.0042	6.184189	25.69907
322	13.67067	3.1540725	0.9975	0.9921	6.188681	25.72376
323	13.68646	3.1441250	0.9854	0.9800	6.190461	25.62364
324	13.69556	3.1350413	0.9885	0.9831	6.192639	25.53584
325	13.66182	3.1304943	1.0037	0.9982	6.197737	25.51735
326	13.57612	3.1342093	1.0159	1.0104	6.205437	25.60794
327	13.51680	3.1451710	1.0251	1.0195	6.207856	25.74671
328	13.47511	3.1511367	1.0251	1.0195	6.210153	25.82877
329	13.43814	3.1508959	1.0191	1.0135	6.214116	25.85156
330	13.47763	3.1425580	1.0069	1.0014	6.212875	25.74942
331	13.49961	3.1359691	1.0039	0.9984	6.212859	25.67505
332	13.50842	3.1330808	0.9978	0.9923	6.212937	25.64304
333	13.51483	3.1374319	1.0070	1.0015	6.210752	25.67807
334	13.52746	3.1450473	1.0070	1.0015	6.206781	25.73843
335	13.53559	3.1483723	1.0101	1.0045	6.204774	25.76301
336	13.52881	3.1458568	1.0071	1.0016	6.206358	25.74483
337	13.52678	3.1400313	1.0041	0.9986	6.208594	25.69355
338	13.51144	3.1368517	1.0041	0.9986	6.211309	25.67510
339	13.48520	3.1372841	1.0102	1.0047	6.213915	25.69661
340	13.46988	3.1415512	1.0194	1.0138	6.214040	25.74552
341	13.47677	3.1466361	1.0225	1.0168	6.211546	25.78690
342	13.49087	3.1495721	1.0194	1.0138	6.209045	25.80398
343	13.50004	3.1467285	1.0073	1.0018	6.209072	25.77207
344	13.52653	3.1402968	0.9982	0.9927	6.208527	25.69612
345	13.54472	3.1357032	0.9921	0.9867	6.208214	25.64243
346	13.54145	3.1333890	1.0013	0.9958	6.209360	25.62371
347	13.51643	3.1350431	1.0135	1.0079	6.211414	25.65541
348	13.49456	3.1421501	1.0135	1.0080	6.211239	25.73434
349	13.50072	3.1469077	1.0166	1.0110	6.208938	25.77323
350	13.50953	3.1474454	1.0105	1.0050	6.207828	25.77217
351	13.53818	3.1411058	1.0075	1.0020	6.207024	25.69561
352	13.56162	3.1353697	1.0015	0.9960	6.206556	25.62811
353	13.57982	3.1337650	1.0046	0.9990	6.205202	25.60146
354	13.57266	3.1388946	1.0168	1.0112	6.204176	25.65253
355	13.57149	3.1433416	1.0107	1.0052	6.202758	25.69346
356	13.56946	3.1446947	1.0229	1.0173	6.202502	25.70704
357	13.55520	3.1436136	1.0138	1.0082	6.204370	25.70684
358	13.54133	3.1418222	1.0138	1.0082	6.206446	25.69997
359	13.53338	3.1407600	1.0078	1.0023	6.207649	25.69571
360	13.52881	3.1395187	1.0016	0.9961	6.208558	25.68755
361	13.52234	3.1370121	1.0048	0.9993	6.210108	25.66924
362	13.50725	3.1354320	1.0109	1.0053	6.212243	25.66507
363	13.48268	3.1377348	1.0231	1.0175	6.214024	25.70238
364	13.46705	3.1432561	1.0262	1.0205	6.213743	25.76286
365	13.47246	3.1477177	1.0201	1.0145	6.211621	25.79960
366	13.50934	3.1451402	1.0079	1.0024	6.208648	25.75145
367	13.56643	3.1374191	1.0019	0.9964	6.205341	25.64339
368	13.60143	3.1331971	0.9988	0.9934	6.203132	25.58192
369	13.61947	3.1333758	1.0111	1.0056	6.201179	25.57149
370	13.62485	3.1394004	1.0081	1.0026	6.198534	25.62221
371	13.62472	3.1437241	1.0111	1.0056	6.197053	25.66126
372	13.60983	3.1430199	0.9990	0.9935	6.198854	25.66488
373	13.59754	3.1385671	0.9960	0.9905	6.201682	25.63294
374	13.58427	3.1352831	0.9991	0.9936	6.204210	25.61219
375	13.55958	3.1351784	1.0052	0.9997	6.206836	25.62774
376	13.53818	3.1374008	1.0144	1.0088	6.208311	25.66213
377	13.53307	3.1402103	1.0266	1.0209	6.207872	25.69094
378	13.53800	3.1426006	1.0327	1.0270	6.206525	25.70923
379	13.54096	3.1440709	1.0297	1.0241	6.205705	25.72053
380	13.54934	3.1423904	1.0175	1.0119	6.205409	25.69972
381	13.56952	3.1375795	0.9993	0.9938	6.204961	25.64277
382	13.57803	3.1332282	1.0054	0.9999	6.205576	25.59781
383	13.56964	3.1315007	1.0024	0.9968	6.207055	25.58783
384	13.53584	3.1332841	1.0146	1.0090	6.209986	25.62652
385	13.50645	3.1375184	1.0177	1.0121	6.211602	25.68447
386	13.50244	3.1410135	1.0177	1.0122	6.210807	25.71876
387	13.49579	3.1415139	1.0148	1.0092	6.211331	25.72776
388	13.48939	3.1388646	1.0026	0.9971	6.212925	25.70810
389	13.48489	3.1348397	1.0057	1.0001	6.214798	25.67471
390	13.46723	3.1332293	1.0026	0.9971	6.217217	25.67199
391	13.43869	3.1349637	1.0087	1.0032	6.219615	25.70685
392	13.42136	3.1372847	1.0118	1.0063	6.220630	25.73954
393	13.41786	3.1386862	1.0119	1.0063	6.220509	25.75459
394	13.41048	3.1393408	1.0028	0.9973	6.221056	25.76550
395	13.40213	3.1393100	0.9937	0.9882	6.221946	25.77085
396	13.39685	3.1384457	0.9998	0.9943	6.222804	25.76657
397	13.39273	3.1365381	0.9968	0.9913	6.223904	25.75205
398	13.38408	3.1348408	1.0029	0.9973	6.225410	25.74249
399	13.36843	3.1358408	1.0151	1.0095	6.226710	25.76211
400	13.35505	3.1385387	1.0151	1.0095	6.227175	25.79562
401	13.35223	3.1399713	1.0152	1.0096	6.226971	25.81053
402	13.35573	3.1388968	1.0152	1.0096	6.226979	25.79841
403	13.36781	3.1360013	1.0061	1.0006	6.226719	25.76398
404	13.37634	3.1343903	1.0062	1.0007	6.226383	25.74361
405	13.37321	3.1347792	1.0092	1.0037	6.226577	25.74925
406	13.37518	3.1365382	1.0123	1.0068	6.225754	25.76388
407	13.39679	3.1374208	1.0124	1.0068	6.223169	25.75732
408	13.42357	3.1371365	1.0124	1.0068	6.220448	25.73670
409	13.43752	3.1357043	1.0033	0.9978	6.219480	25.71435
410	13.43752	3.1343897	1.0063	1.0008	6.219938	25.70244
411	13.42732	3.1341121	1.0124	1.0069	6.221110	25.70678
412	13.41325	3.1344825	1.0064	1.0009	6.222462	25.71960
413	13.40330	3.1356121	1.0156	1.0100	6.223116	25.73654
414	13.40330	3.1373405	1.0065	1.0010	6.222512	25.75221
415	13.40993	3.1380504	1.0005	0.9950	6.221565	25.75417
416	13.41743	3.1370131	1.0096	1.0041	6.221138	25.73972
417	13.42443	3.1337913	1.0005	0.9950	6.221526	25.70582
418	13.42412	3.1306694	1.0006	0.9951	6.222648	25.67775
419	13.40366	3.1300590	1.0066	1.0011	6.225018	25.68596
420	13.36928	3.1337363	1.0158	1.0102	6.227356	25.74243
421	13.35413	3.1365384	1.0097	1.0042	6.227973	25.77808
422	13.33996	3.1361188	1.0158	1.0103	6.229614	25.78383
423	13.34101	3.1327308	1.0098	1.0042	6.230692	25.75237
424	13.34438	3.1305469	1.0160	1.0104	6.231102	25.73027
425	13.33488	3.1305778	1.0221	1.0165	6.232094	25.73695
426	13.32372	3.1323176	1.0251	1.0195	6.232662	25.76027
427	13.33592	3.1346870	1.0221	1.0164	6.230543	25.77356
428	13.35646	3.1365384	1.0100	1.0044	6.227727	25.77651
429	13.37370	3.1332611	0.9918	0.9864	6.227056	25.73515
430	13.40704	3.1290536	0.9948	0.9894	6.225013	25.67458
431	13.42283	3.1267410	1.0132	1.0076	6.224156	25.64303
432	13.38991	3.1288811	1.0162	1.0106	6.226880	25.68452
433	13.36174	3.1330206	1.0193	1.0137	6.228403	25.74102
434	13.33555	3.1350264	1.0132	1.0077	6.230463	25.77689
435	13.30093	3.1338234	1.0103	1.0047	6.234540	25.78935
436	13.29040	3.1306954	1.0042	0.9987	6.236752	25.76804
437	13.27711	3.1288206	1.0103	1.0047	6.238816	25.75996
438	13.26004	3.1274209	1.0164	1.0108	6.241115	25.75876
439	13.23093	3.1294193	1.0194	1.0138	6.243493	25.79662
440	13.21339	3.1325161	1.0104	1.0048	6.244258	25.83671
441	13.20429	3.1334541	1.0074	1.0019	6.244891	25.85142
442	13.18627	3.1304929	0.9954	0.9899	6.247845	25.83666
443	13.16339	3.1280200	1.0014	0.9959	6.251146	25.82964
444	13.13143	3.1270399	1.0075	1.0020	6.254885	25.84238
445	13.08227	3.1285820	1.0105	1.0050	6.259561	25.88989
446	13.05294	3.1320982	1.0136	1.0080	6.261429	25.94203
447	13.04108	3.1340358	1.0228	1.0172	6.262000	25.96785
448	13.03232	3.1354369	1.0320	1.0263	6.262432	25.98666
449	13.08452	3.1336466	1.0290	1.0233	6.257523	25.93464
450	13.14496	3.1299259	1.0168	1.0113	6.252426	25.85952
451	13.16034	3.1288526	0.9987	0.9932	6.251175	25.83930
452	13.16314	3.1285565	1.0048	0.9993	6.250982	25.83470
453	13.15497	3.1296791	1.0139	1.0084	6.251452	25.85048
454	13.14923	3.1314125	1.0200	1.0144	6.251447	25.87019
455	13.15887	3.1323378	1.0261	1.0205	6.250098	25.87208
456	13.16180	3.1324488	1.0171	1.0115	6.249748	25.87110
457	13.15747	3.1326648	1.0140	1.0085	6.250130	25.87602
458	13.15314	3.1327821	1.0050	0.9995	6.250548	25.88003
459	13.15167	3.1311780	0.9989	0.9934	6.251271	25.86640
460	13.14710	3.1298395	1.0020	0.9965	6.252230	25.85729
461	13.12424	3.1289146	1.0051	0.9996	6.254985	25.86438
462	13.07685	3.1312960	1.0143	1.0087	6.259173	25.91838
463	13.04977	3.1329065	1.0143	1.0087	6.261478	25.95158
464	13.02910	3.1327340	1.0143	1.0088	6.263738	25.96412
465	13.02582	3.1307290	1.0144	1.0088	6.264801	25.94801
466	13.02977	3.1297790	1.0143	1.0088	6.264719	25.93662
467	13.02782	3.1299271	1.0175	1.0119	6.264873	25.93930
468	13.02940	3.1305007	1.0145	1.0089	6.264501	25.94347
469	13.04241	3.1307905	1.0115	1.0060	6.263013	25.93725
470	13.06188	3.1308767	1.0115	1.0059	6.260913	25.92476
471	13.07715	3.1307531	1.0116	1.0060	6.259333	25.91321
472	13.08415	3.1307284	1.0146	1.0090	6.258598	25.90822
473	13.07216	3.1309691	1.0238	1.0181	6.259787	25.91859
474	13.04466	3.1312346	1.0299	1.0242	6.262616	25.93977
475	13.03256	3.1314445	1.0208	1.0152	6.263828	25.94995
476	13.04260	3.1334434	1.0178	1.0122	6.262050	25.96140
477	13.09341	3.1319498	1.0118	1.0062	6.257181	25.91308
478	13.15338	3.1290315	1.0087	1.0032	6.251850	25.84565
479	13.18786	3.1283651	1.0057	1.0002	6.248429	25.81619
480	13.19562	3.1286179	1.0119	1.0063	6.247517	25.81324
481	13.19665	3.1300117	1.0089	1.0033	6.246915	25.82523
482	13.20520	3.1316833	1.0210	1.0154	6.245419	25.83466
483	13.20710	3.1318499	1.0181	1.0125	6.245159	25.83490
484	13.20685	3.1305791	1.0181	1.0125	6.245634	25.82349
485	13.20643	3.1293887	1.0151	1.0095	6.246099	25.81293
486	13.19781	3.1297465	1.0121	1.0065	6.246886	25.82203
487	13.18542	3.1299872	1.0152	1.0096	6.248114	25.83263
488	13.18243	3.1301044	1.0091	1.0035	6.248390	25.83572
489	13.19201	3.1300426	1.0061	1.0006	6.247396	25.82866
490	13.19708	3.1296170	1.0092	1.0037	6.247009	25.82135
491	13.19439	3.1304620	1.0122	1.0067	6.246995	25.83087
492	13.18475	3.1292409	1.0335	1.0279	6.248450	25.82627
493	13.14740	3.1290624	1.0610	1.0552	6.252474	25.84997
494	13.06115	3.1330175	1.1098	1.1037	6.260231	25.94480
495	12.95683	3.1433541	1.2163	1.2096	6.267636	26.11094
496	12.86056	3.1451778	1.3472	1.3398	6.277234	26.19404
497	12.78652	3.1455370	1.4903	1.4821	6.285005	26.24857
498	12.72697	3.1477132	1.6364	1.6274	6.290582	26.30996
499	12.67865	3.1493457	1.7977	1.7878	6.295159	26.35865
500	12.63948	3.1527596	1.9437	1.9331	6.298113	26.41755
501	12.60648	3.1587679	2.1112	2.0996	6.299462	26.49628
502	12.57519	3.1638576	2.2878	2.2752	6.300959	26.56542
503	12.54968	3.1648117	2.4521	2.4386	6.303342	26.59220
504	12.53367	3.1644031	2.6225	2.6081	6.305208	26.59964
505	12.52294	3.1644033	2.7961	2.7807	6.306359	26.60716
506	12.51329	3.1656051	2.9818	2.9654	6.306956	26.62508
507	12.50496	3.1669062	3.1826	3.1651	6.307375	26.64299
508	12.49897	3.1681518	3.3986	3.3799	6.307564	26.65874
509	12.49256	3.1704015	3.6057	3.5858	6.307430	26.68413
510	12.48770	3.1685610	3.8157	3.7947	6.308626	26.67037
511	12.48459	3.1676006	4.0257	4.0036	6.309314	26.66357
512	12.48291	3.1652156	4.2419	4.2185	6.310370	26.64250
513	12.48591	3.1619952	4.4610	4.4364	6.311231	26.61036
514	12.48711	3.1640140	4.6618	4.6361	6.310366	26.62822
515	12.48860	3.1626578	4.8657	4.8389	6.310705	26.61448
516	12.49058	3.1646459	5.0879	5.0599	6.309768	26.63149
517	12.47998	3.1789043	5.3040	5.2748	6.305687	26.77158
518	12.45855	3.1907388	5.5293	5.4989	6.303646	26.89699
519	12.43893	3.1944244	5.7423	5.7107	6.304393	26.94531
520	12.42344	3.1959166	5.9493	5.9165	6.305502	26.97025
521	12.41262	3.1985409	6.1715	6.1375	6.305696	27.00242
522	12.40575	3.2000337	6.3906	6.3554	6.305885	27.02121
523	12.40097	3.2022921	6.5977	6.5613	6.305568	27.04566
524	12.39768	3.2028149	6.8229	6.7853	6.305730	27.05283
525	12.39523	3.2041280	7.0421	7.0032	6.305511	27.06678
526	12.39093	3.2071220	7.2551	7.2151	6.304872	27.09777
527	12.38125	3.2098183	7.4711	7.4299	6.304916	27.12986
528	12.36866	3.2116247	7.7024	7.6600	6.305598	27.15576
529	12.35087	3.2134627	7.9186	7.8749	6.306820	27.18573
530	12.32570	3.2148774	8.1468	8.1019	6.308986	27.21711
531	12.29787	3.2154573	8.3630	8.3169	6.311745	27.24264
532	12.26702	3.2164112	8.5821	8.5347	6.314689	27.27391
533	12.23709	3.2175771	8.7951	8.7466	6.317458	27.30654
534	12.20944	3.2183753	9.0112	8.9615	6.320120	27.33410
535	12.18460	3.2186749	9.2396	9.1886	6.322667	27.35495
536	12.15877	3.2190805	9.4647	9.4125	6.325283	27.37755
537	12.13148	3.2188065	9.6868	9.6334	6.328310	27.39484
538	12.09964	3.2184079	9.9121	9.8574	6.331873	27.41432
539	12.05049	3.2184085	10.1252	10.0694	6.337147	27.45028
540	11.97511	3.2176738	10.3505	10.2934	6.345522	27.49867
541	11.89924	3.2179489	10.5788	10.5204	6.353586	27.55714
542	11.84011	3.2183174	10.8009	10.7412	6.359822	27.60429
543	11.77714	3.2221029	11.0231	10.9622	6.365186	27.68688
544	11.67220	3.2254539	11.2422	11.1802	6.375253	27.79694
545	11.53882	3.2308227	11.4704	11.4071	6.387642	27.94826
546	11.35657	3.2311930	11.6927	11.6281	6.407295	28.08960
547	11.12409	3.2277748	11.9088	11.8430	6.434010	28.23391
548	10.88983	3.2270971	12.1310	12.0640	6.460005	28.40765
549	10.73434	3.2273422	12.3410	12.2728	6.477064	28.53072
550	10.63142	3.2276866	12.5754	12.5060	6.488317	28.61439
551	10.51128	3.2292920	12.7884	12.7178	6.500997	28.72441
552	10.32641	3.2287946	13.0197	12.9478	6.521778	28.86555
553	10.11410	3.2281229	13.2236	13.1506	6.545799	29.02808
554	9.96528	3.2277875	13.4550	13.3806	6.562655	29.14422
555	9.87882	3.2258166	13.6833	13.6077	6.573220	29.19422
556	9.81508	3.2258423	13.9054	13.8286	6.580406	29.24600
557	9.74487	3.2241523	14.1245	14.0465	6.589057	29.28594
558	9.65063	3.2226751	14.3376	14.2584	6.600362	29.34773
559	9.49402	3.2208932	14.5599	14.4794	6.618924	29.45783
560	9.32641	3.2193299	14.7729	14.6912	6.638725	29.57996
561	9.17126	3.2176360	14.9921	14.9092	6.657239	29.69128
562	9.01902	3.2172449	15.2112	15.1271	6.674922	29.81426
563	8.89355	3.2168786	15.4335	15.3481	6.689563	29.91577
564	8.79417	3.2162003	15.6464	15.5599	6.701363	29.99255
565	8.71271	3.2154970	15.8626	15.7749	6.711123	30.05419
566	8.64755	3.2147625	16.0726	15.9837	6.719024	30.10185
567	8.59124	3.2141213	16.2917	16.2016	6.725864	30.14306
568	8.53821	3.2106272	16.5078	16.4165	6.733616	30.15193
569	8.42949	3.2033135	16.7301	16.6375	6.749621	30.16862
570	8.22413	3.1994709	16.9339	16.8402	6.775482	30.30478
571	8.00901	3.1961773	17.1561	17.0612	6.802397	30.45637
572	7.82662	3.1953897	17.3722	17.2761	6.824404	30.60722
573	7.71400	3.1948749	17.6005	17.5031	6.838057	30.70065
574	7.64997	3.1944778	17.8318	17.7331	6.845886	30.75281
575	7.61193	3.1942048	18.0449	17.9450	6.850563	30.78345
576	7.58493	3.1928936	18.2609	18.1598	6.854414	30.79326
577	7.54890	3.1896070	18.4771	18.3748	6.860287	30.78998
578	7.47650	3.1874834	18.6993	18.5958	6.869980	30.83140
579	7.39621	3.1859068	18.9154	18.8106	6.880384	30.88584
580	7.32257	3.1837221	19.1347	19.0287	6.890301	30.92799
581	7.24608	3.1818421	19.3507	19.2435	6.900438	30.97608
582	7.17068	3.1798632	19.5697	19.4613	6.910516	31.02229
583	7.10228	3.1791752	19.7799	19.6703	6.919139	31.07629
584	7.05091	3.1784188	19.9990	19.8881	6.925744	31.11434
585	7.01357	3.1776314	20.2121	20.1000	6.930667	31.13944
586	6.97773	3.1760252	20.4221	20.3089	6.935814	31.15434
587	6.92931	3.1744257	20.6443	20.5299	6.942497	31.18072
588	6.87566	3.1734094	20.8604	20.7448	6.949541	31.21825
589	6.83434	3.1727960	21.0705	20.9536	6.954890	31.24904
590	6.80646	3.1722818	21.2865	21.1684	6.958555	31.26872
591	6.78645	3.1716435	21.5027	21.3835	6.961321	31.27989
592	6.77033	3.1709247	21.7066	21.5862	6.963652	31.28665
593	6.75504	3.1703175	21.9227	21.8011	6.965829	31.29386
594	6.74027	3.1698094	22.1449	22.0220	6.967893	31.30169
595	6.72747	3.1685950	22.3579	22.2339	6.970068	31.30000
596	6.70869	3.1674489	22.5710	22.4457	6.972943	31.30452
597	6.68357	3.1667862	22.7810	22.6546	6.976357	31.32013
598	6.66084	3.1663033	22.9941	22.8665	6.979392	31.33554
599	6.64409	3.1659132	23.2011	23.0724	6.981647	31.34650
600	6.63173	3.1658019	23.4050	23.2751	6.983225	31.35651
601	6.62447	3.1658268	23.6089	23.4779	6.984109	31.36334
602	6.61994	3.1653128	23.8098	23.6777	6.984926	31.36176
603	6.61006	3.1658828	24.0047	23.8714	6.985861	31.37698
604	6.59766	3.1657653	24.2055	24.0711	6.987449	31.38698
605	6.58300	3.1634738	24.4034	24.2679	6.990401	31.37519
606	6.55821	3.1624585	24.5830	24.4465	6.993963	31.38670
607	6.53108	3.1615795	24.7687	24.6311	6.997750	31.40188
608	6.50437	3.1607936	24.9604	24.8218	7.001441	31.41770
609	6.47907	3.1601315	25.1553	25.0156	7.004900	31.43361
610	6.45604	3.1597727	25.3439	25.2032	7.007928	31.45079
611	6.43661	3.1593520	25.5266	25.3848	7.010544	31.46398
612	6.41873	3.1589314	25.7061	25.5633	7.012971	31.47576
613	6.40254	3.1586902	25.9041	25.7602	7.015098	31.48795
614	6.38954	3.1581519	26.0897	25.9448	7.016983	31.49394
615	6.37725	3.1578179	26.3029	26.1567	7.018677	31.50151
616	6.36666	3.1576386	26.5098	26.3625	7.020083	31.50922
617	6.35924	3.1576387	26.7137	26.5652	7.021006	31.51599
618	6.35443	3.1574903	26.9208	26.7711	7.021681	31.51870
619	6.35167	3.1573419	27.1278	26.9770	7.022103	31.51952
620	6.34911	3.1570387	27.3408	27.1888	7.022578	31.51844
621	6.34533	3.1565252	27.5449	27.3917	7.023311	31.51617
622	6.33888	3.1558694	27.7517	27.5974	7.024446	31.51478
623	6.32912	3.1546384	27.9983	27.8426	7.026285	31.51010
624	6.31424	3.1533148	28.2235	28.0665	7.028806	31.50912
625	6.29452	3.1525048	28.4213	28.2632	7.031669	31.51833
626	6.27655	3.1513362	28.6314	28.4722	7.034500	31.52194
627	6.25684	3.1493269	28.8383	28.6779	7.037975	31.51785
628	6.23189	3.1485791	29.0423	28.8807	7.041464	31.53260
629	6.21180	3.1479798	29.2584	29.0956	7.044274	31.54449
630	6.19702	3.1476647	29.4624	29.2985	7.046280	31.55463
631	6.18622	3.1464844	29.6967	29.5314	7.048234	31.55145
632	6.17272	3.1448655	29.9250	29.7585	7.050749	31.54591
633	6.15398	3.1444765	30.1473	29.9795	7.053290	31.55890
634	6.13825	3.1442790	30.3695	30.2004	7.055359	31.57122
635	6.12670	3.1439084	30.5886	30.4183	7.056995	31.57774
636	6.11749	3.1437294	30.8047	30.6332	7.058242	31.58422
637	6.11078	3.1436122	31.0391	30.8663	7.059145	31.58905
638	6.10564	3.1434022	31.2552	31.0812	7.059899	31.59140
639	6.10209	3.1433035	31.4896	31.3142	7.060400	31.59350
640	6.09848	3.1430441	31.6996	31.5230	7.060989	31.59388
641	6.09420	3.1428959	31.9249	31.7471	7.061603	31.59610
642	6.09075	3.1427416	32.1348	31.9558	7.062119	31.59751
643	6.08836	3.1426428	32.3540	32.1738	7.062473	31.59853
644	6.08465	3.1417287	32.5854	32.4038	7.063412	31.59170
645	6.07413	3.1411915	32.8046	32.6218	7.065008	31.59542
646	6.06077	3.1402962	33.0298	32.8457	7.067145	31.59780
647	6.04507	3.1395183	33.2551	33.0697	7.069515	31.60366
648	6.02827	3.1392468	33.4621	33.2756	7.071763	31.61621
649	6.01442	3.1390433	33.6873	33.4995	7.073609	31.62676
650	6.00330	3.1389817	33.8942	33.7053	7.075038	31.63635
651	5.99585	3.1386669	34.1135	33.9233	7.076140	31.63970
652	5.98946	3.1385312	34.3296	34.1381	7.077016	31.64405
653	5.98378	3.1384140	34.5458	34.3531	7.077793	31.64795
654	5.97982	3.1384450	34.7496	34.5558	7.078278	31.65190
655	5.97749	3.1383216	34.9658	34.7708	7.078639	31.65260
656	5.97557	3.1382661	35.1788	34.9826	7.078914	31.65368
657	5.97379	3.1380254	35.3797	35.1823	7.079265	31.65255
658	5.97034	3.1377292	35.6020	35.4033	7.079856	31.65236
659	5.96507	3.1374082	35.8120	35.6122	7.080688	31.65361
660	5.95732	3.1368342	36.0312	35.8302	7.081962	31.65434
661	5.94638	3.1366245	36.2504	36.0481	7.083450	31.66213
662	5.93619	3.1361494	36.4604	36.2569	7.084979	31.66625
663	5.92602	3.1357113	36.6704	36.4657	7.086489	31.67079
664	5.91634	3.1353720	36.8896	36.6837	7.087885	31.67594
665	5.90774	3.1349278	37.1058	36.8986	7.089202	31.67893
666	5.89924	3.1347489	37.3188	37.1105	7.090369	31.68480
667	5.89200	3.1344837	37.5350	37.3254	7.091421	31.68851
668	5.88487	3.1340025	37.7664	37.5555	7.092573	31.68970
669	5.87526	3.1337311	38.0159	37.8036	7.093929	31.69555
670	5.86646	3.1336449	38.2351	38.0215	7.095086	31.70273
671	5.85938	3.1330341	38.4451	38.2304	7.096300	31.70244
672	5.84872	3.1321520	38.6673	38.4513	7.098107	31.70246
673	5.83350	3.1306038	38.8865	38.6692	7.100834	31.69928
674	5.81067	3.1290744	39.1026	38.8842	7.104515	31.70347
675	5.78225	3.1281374	39.3127	39.0930	7.108596	31.71956
676	5.75552	3.1275457	39.5319	39.3109	7.112287	31.73795
677	5.73147	3.1271576	39.7511	39.5289	7.115535	31.75613
678	5.71035	3.1269729	39.9734	39.7499	7.118307	31.77384
679	5.69615	3.1268868	40.1833	39.9586	7.120154	31.78616
680	5.68718	3.1267389	40.3965	40.1706	7.121371	31.79285
681	5.68094	3.1264739	40.6156	40.3885	7.122305	31.79565
682	5.67525	3.1262829	40.8318	40.6035	7.123130	31.79877
683	5.66967	3.1259995	41.0449	40.8153	7.123992	31.80075
684	5.66247	3.1254941	41.2609	41.0302	7.125174	31.80175
685	5.65120	3.1253463	41.4772	41.2452	7.126684	31.81063
686	5.64053	3.1251985	41.6902	41.4570	7.128118	31.81893
687	5.63274	3.1251370	41.9125	41.6780	7.129143	31.82550
688	5.62781	3.1250508	42.1377	41.9019	7.129819	31.82908
689	5.62329	3.1249708	42.3569	42.1199	7.130440	31.83235
690	5.61977	3.1248969	42.5913	42.3529	7.130930	31.83473
691	5.61710	3.1248970	42.8165	42.5769	7.131273	31.83715
692	5.61474	3.1248725	43.0419	42.8010	7.131591	31.83899
693	5.61228	3.1249281	43.2731	43.0309	7.131879	31.84184
694	5.60997	3.1248727	43.4955	43.2520	7.132206	31.84329
695	5.60710	3.1248728	43.7298	43.4850	7.132575	31.84589
696	5.60393	3.1248420	43.9552	43.7090	7.132998	31.84843
697	5.60082	3.1248976	44.1834	43.9359	7.133369	31.85190
698	5.59770	3.1246018	44.4087	44.1600	7.133925	31.85140
699	5.59022	3.1241212	44.6309	44.3810	7.135134	31.85296
700	5.57731	3.1239796	44.8684	44.6171	7.136853	31.86347
701	5.56611	3.1238319	45.0936	44.8410	7.138358	31.87231
702	5.55828	3.1237149	45.3220	45.0681	7.139420	31.87830
703	5.55291	3.1236534	45.5441	45.2889	7.140139	31.88259
704	5.54924	3.1236227	45.7634	45.5070	7.140626	31.88561
705	5.54709	3.1235920	45.9917	45.7340	7.140922	31.88720
706	5.54613	3.1236229	46.2199	45.9608	7.141032	31.88834
707	5.54568	3.1236229	46.4392	46.1789	7.141094	31.88867
708	5.54538	3.1235922	46.6645	46.4029	7.141154	31.88850
709	5.54548	3.1235368	46.8837	46.6209	7.141175	31.88767
710	5.54543	3.1235615	47.1059	46.8417	7.141174	31.88789
711	5.54533	3.1235369	47.3373	47.0719	7.141205	31.88759
712	5.54518	3.1235370	47.5687	47.3019	7.141229	31.88762
713	5.54483	3.1234015	47.7909	47.5229	7.141350	31.88632
714	5.54377	3.1232413	48.0100	47.7407	7.141574	31.88540
715	5.54101	3.1231181	48.2322	47.9617	7.141995	31.88652
716	5.53715	3.1230936	48.4485	48.1767	7.142504	31.88980
717	5.53394	3.1230259	48.6586	48.3856	7.142953	31.89198
718	5.53158	3.1230013	48.8747	48.6004	7.143270	31.89384
719	5.53043	3.1230322	49.0909	48.8154	7.143406	31.89518
720	5.52958	3.1230261	49.3101	49.0333	7.143522	31.89581
721	5.52917	3.1230324	49.5292	49.2512	7.143575	31.89615
722	5.52857	3.1230324	49.7454	49.4661	7.143656	31.89662
723	5.52767	3.1229401	49.9647	49.6842	7.143825	31.89633
724	5.52566	3.1228107	50.1839	49.9021	7.144154	31.89666
725	5.52285	3.1227061	50.3877	50.1048	7.144571	31.89805
726	5.51984	3.1225891	50.6101	50.3259	7.145021	31.89947
727	5.51638	3.1224659	50.8261	50.5407	7.145531	31.90126
728	5.51202	3.1223181	51.0363	50.7496	7.146169	31.90363
729	5.50701	3.1221704	51.2554	50.9675	7.146890	31.90661
730	5.50234	3.1220842	51.4716	51.1825	7.147534	31.90996
731	5.49748	3.1220289	51.6939	51.4035	7.148187	31.91385
732	5.49422	3.1220536	51.9130	51.6214	7.148594	31.91712
733	5.49277	3.1219921	52.1293	51.8364	7.148816	31.91770
734	5.49147	3.1219305	52.3515	52.0573	7.149020	31.91813
735	5.48966	3.1219368	52.5586	52.2632	7.149251	31.91982
736	5.48781	3.1219368	52.7838	52.4871	7.149492	31.92147
737	5.48640	3.1219061	52.9848	52.6869	7.149692	31.92236
738	5.48395	3.1218692	53.2009	52.9018	7.150029	31.92417
739	5.47999	3.1218755	53.4232	53.1228	7.150534	31.92789
740	5.47643	3.1218448	53.6424	53.3408	7.151008	31.93082
741	5.47393	3.1217771	53.8677	53.5648	7.151369	31.93233
742	5.47082	3.1217587	54.0900	53.7858	7.151779	31.93497
743	5.46476	3.1217588	54.3153	54.0098	7.152556	31.94062
744	5.45655	3.1216974	54.5375	54.2307	7.153640	31.94764
745	5.44979	3.1216852	54.7567	54.4486	7.154512	31.95383
746	5.44383	3.1216422	54.9789	54.6696	7.155299	31.95890
747	5.43877	3.1216423	55.2011	54.8905	7.155949	31.96361
748	5.43502	3.1216547	55.4234	55.1115	7.156426	31.96722
749	5.43276	3.1216425	55.6519	55.3387	7.156724	31.96911
750	5.42976	3.1216672	55.8741	55.5596	7.157099	31.97215
751	5.42120	3.1217290	56.0963	55.7805	7.158162	31.98089
752	5.40985	3.1217477	56.3155	55.9985	7.159605	31.99183
753	5.39749	3.1219389	56.5439	56.2256	7.161083	32.00567
754	5.38114	3.1219946	56.7844	56.4647	7.163145	32.02180
755	5.36650	3.1219640	57.0279	56.7067	7.165035	32.03532
756	5.35640	3.1219642	57.2471	56.9247	7.166329	32.04487
757	5.34986	3.1218164	57.4694	57.1457	7.167248	32.04934
758	5.34511	3.1214345	57.7008	57.3758	7.168064	32.04942
759	5.33932	3.1212128	57.9169	57.5907	7.168927	32.05234
760	5.33422	3.1212252	58.1423	57.8148	7.169577	32.05724
761	5.33108	3.1212253	58.3707	58.0418	7.169984	32.06014
762	5.32953	3.1212131	58.5807	58.2506	7.170193	32.06138
763	5.32843	3.1211392	58.8152	58.4837	7.170378	32.06148
764	5.32703	3.1206649	59.0313	58.6986	7.170816	32.05732
765	5.32289	3.1202769	59.2597	58.9257	7.171558	32.05676
766	5.31725	3.1196548	59.4880	59.1527	7.172618	32.05498
767	5.31116	3.1194146	59.7133	59.3767	7.173530	32.05796
768	5.30582	3.1193285	59.9386	59.6007	7.174265	32.06199
769	5.30198	3.1192116	60.1639	59.8247	7.174824	32.06422
770	5.29923	3.1192425	60.3892	60.0486	7.175164	32.06709
771	5.29739	3.1191810	60.6055	60.2637	7.175438	32.06806
772	5.29639	3.1192118	60.8216	60.4786	7.175554	32.06926
773	5.29559	3.1192427	61.0530	60.7086	7.175645	32.07026
774	5.29499	3.1192674	61.2753	60.9296	7.175713	32.07100
775	5.29469	3.1192675	61.5037	61.1567	7.175757	32.07118
776	5.29429	3.1193723	61.7319	61.3836	7.175757	32.07264
777	5.29404	3.1197420	61.9573	61.6077	7.175595	32.07698
778	5.29474	3.1200686	62.1765	61.8256	7.175336	32.07992
779	5.29519	3.1202473	62.3927	62.0405	7.175188	32.08141
780	5.29564	3.1202781	62.6180	62.2646	7.175119	32.08122
781	5.29599	3.1202474	62.8433	62.4886	7.175096	32.08043
782	5.29634	3.1204015	63.0747	62.7186	7.174974	32.08173
783	5.29644	3.1205186	63.2846	62.9273	7.174903	32.08287
784	5.29644	3.1207836	63.5071	63.1485	7.174766	32.08577
785	5.29609	3.1211657	63.7324	63.3725	7.174611	32.09034
786	5.29574	3.1215601	63.9486	63.5874	7.174449	32.09506
787	5.29549	3.1219977	64.1709	63.8084	7.174251	32.10017
788	5.29494	3.1222072	64.3931	64.0294	7.174214	32.10297
789	5.29449	3.1222196	64.6124	64.2474	7.174270	32.10343
790	5.29464	3.1222690	64.8315	64.4653	7.174229	32.10374
791	5.29469	3.1222937	65.0538	64.6863	7.174215	32.10387
792	5.29449	3.1222691	65.2762	64.9074	7.174259	32.10367
793	5.29409	3.1223123	65.4953	65.1252	7.174292	32.10444
794	5.29335	3.1224480	65.7269	65.3554	7.174320	32.10659
795	5.29225	3.1225035	65.9492	65.5764	7.174436	32.10816
796	5.29115	3.1225344	66.1867	65.8125	7.174565	32.10945
797	5.29065	3.1225653	66.4393	66.0637	7.174618	32.11015
798	5.28990	3.1226825	66.6677	66.2908	7.174656	32.11209
799	5.28851	3.1227997	66.8839	66.5057	7.174777	32.11466
800	5.28551	3.1230031	67.1061	66.7266	7.175055	32.11974
801	5.28082	3.1230710	67.3315	66.9506	7.175623	32.12490
802	5.27519	3.1231574	67.5477	67.1656	7.176302	32.13119
803	5.27050	3.1231637	67.7730	67.3896	7.176904	32.13565
804	5.26776	3.1231885	67.9831	67.5985	7.177246	32.13846
805	5.26571	3.1232194	68.2053	67.8194	7.177496	32.14066
806	5.26342	3.1232503	68.4246	68.0374	7.177777	32.14311
807	5.26108	3.1233490	68.6469	68.2585	7.178029	32.14638
808	5.25883	3.1234292	68.8692	68.4794	7.178278	32.14933
809	5.25659	3.1236635	69.0884	68.6974	7.178444	32.15405
810	5.25310	3.1238546	69.3076	68.9153	7.178793	32.15947
811	5.24877	3.1239903	69.5298	69.1362	7.179280	32.16508
812	5.24538	3.1241384	69.7553	69.3603	7.179639	32.16991
813	5.24318	3.1243172	69.9775	69.5813	7.179828	32.17395
814	5.24149	3.1245392	70.1907	69.7932	7.179930	32.17801
815	5.23850	3.1246441	70.4129	70.0141	7.180261	32.18197
816	5.23541	3.1248229	70.6351	70.2351	7.180565	32.18687
817	5.23252	3.1249833	70.8575	70.4561	7.180854	32.19137
818	5.22958	3.1251498	71.0798	70.6772	7.181145	32.19599
819	5.22644	3.1252116	71.3021	70.8981	7.181519	32.19960
820	5.22410	3.1251809	71.5274	71.1221	7.181840	32.20139
821	5.22271	3.1252302	71.7437	71.3371	7.181997	32.20319
822	5.22181	3.1252118	71.9629	71.5551	7.182127	32.20374
823	5.22102	3.1252674	72.1821	71.7730	7.182204	32.20503
824	5.22032	3.1252613	72.4165	72.0060	7.182302	32.20552
825	5.21977	3.1252984	72.6389	72.2271	7.182357	32.20636
826	5.21833	3.1253909	72.8549	72.4419	7.182497	32.20870
827	5.21718	3.1254773	73.0712	72.6569	7.182602	32.21068
828	5.21544	3.1256068	73.2874	72.8719	7.182760	32.21373
829	5.21315	3.1257734	73.5006	73.0838	7.182969	32.21773
830	5.20996	3.1257180	73.7198	73.3018	7.183412	32.22006
831	5.20627	3.1256071	73.9422	73.5228	7.183948	32.22224
832	5.20314	3.1255394	74.1554	73.7347	7.184391	32.22438
833	5.20095	3.1255087	74.3684	73.9465	7.184693	32.22604
834	5.19950	3.1255087	74.5878	74.1646	7.184883	32.22732
835	5.19871	3.1255458	74.7978	74.3734	7.184970	32.22841
836	5.19836	3.1255089	75.0140	74.5883	7.185039	32.22822
837	5.19811	3.1254781	75.2393	74.8124	7.185093	32.22799
838	5.19721	3.1254782	75.4556	75.0273	7.185213	32.22875
839	5.19677	3.1255769	75.6900	75.2604	7.185222	32.23019
840	5.19647	3.1257435	75.9641	75.5329	7.185177	32.23225
841	5.19592	3.1257743	76.1803	75.7478	7.185235	32.23302
842	5.19527	3.1257374	76.3935	75.9597	7.185343	32.23312
843	5.19497	3.1257745	76.6219	76.1869	7.185367	32.23372
844	5.19477	3.1258362	76.8443	76.4079	7.185364	32.23450
845	5.19448	3.1261322	77.0665	76.6289	7.185248	32.23806
846	5.19254	3.1268352	77.2826	76.8436	7.185122	32.24785
847	5.18766	3.1276800	77.5050	77.0648	7.185296	32.26209
848	5.18169	3.1280070	77.7334	77.2918	7.185889	32.27148
849	5.17706	3.1281551	77.9588	77.5159	7.186407	32.27752
850	5.17392	3.1285992	78.1748	77.7306	7.186573	32.28552
851	5.17164	3.1287781	78.4001	77.9546	7.186774	32.28966
852	5.17029	3.1288091	78.6195	78.1727	7.186935	32.29120
853	5.16915	3.1289078	78.8448	78.3966	7.187033	32.29333
854	5.16870	3.1289264	79.0701	78.6206	7.187086	32.29386
855	5.16830	3.1290498	79.2863	78.8356	7.187075	32.29555
856	5.16790	3.1292534	79.5056	79.0536	7.187021	32.29815
857	5.16771	3.1296914	79.7371	79.2837	7.186815	32.30323
858	5.16616	3.1299690	79.9593	79.5046	7.186868	32.30778
859	5.16358	3.1299691	80.1754	79.7194	7.187204	32.31018
860	5.15880	3.1299754	80.4039	79.9467	7.187817	32.31475
861	5.15283	3.1300619	80.6263	80.1677	7.188539	32.32141
862	5.14617	3.1301484	80.8546	80.3947	7.189351	32.32873
863	5.14105	3.1303891	81.0800	80.6187	7.189882	32.33633
864	5.13787	3.1304138	81.3113	80.8487	7.190281	32.33957
865	5.13583	3.1303892	81.5338	81.0698	7.190561	32.34116
866	5.13429	3.1302413	81.7590	81.2938	7.190843	32.34085
867	5.13165	3.1299700	81.9996	81.5330	7.191333	32.34017
868	5.12703	3.1297234	82.2402	81.7721	7.192064	32.34171
869	5.12117	3.1295261	82.4655	81.9961	7.192928	32.34502
870	5.11531	3.1295263	82.6878	82.2171	7.193684	32.35059
871	5.11138	3.1293783	82.9194	82.4473	7.194272	32.35259
872	5.10800	3.1292859	83.1478	82.6744	7.194761	32.35469
873	5.10542	3.1293169	83.3822	82.9074	7.195081	32.35743
874	5.10383	3.1293170	83.6166	83.1404	7.195290	32.35886
875	5.10284	3.1292862	83.8512	83.3736	7.195439	32.35935
876	5.10219	3.1292554	84.0796	83.6006	7.195544	32.35951
877	5.10135	3.1289903	84.3201	83.8398	7.195802	32.35718
878	5.09777	3.1288424	84.5485	84.0668	7.196346	32.35884
879	5.09335	3.1291941	84.7860	84.3029	7.196727	32.36703
880	5.09102	3.1293792	85.0175	84.5331	7.196931	32.37130
881	5.09032	3.1300022	85.2521	84.7662	7.196688	32.37899
882	5.09146	3.1302428	85.5078	85.0204	7.196417	32.38051
883	5.09325	3.1302614	85.7909	85.3018	7.196185	32.37885
884	5.09424	3.1303293	86.0346	85.5441	7.196026	32.37854
885	5.09494	3.1302430	86.2508	85.7591	7.195989	32.37677
886	5.09479	3.1300704	86.4914	85.9982	7.196107	32.37482
887	5.09434	3.1301815	86.7290	86.2344	7.196110	32.37641
888	5.09419	3.1302679	86.9695	86.4735	7.196088	32.37742
889	5.09424	3.1303914	87.2040	86.7066	7.196020	32.37867
890	5.09459	3.1306382	87.4445	86.9457	7.195847	32.38104
891	5.09554	3.1311934	87.6820	87.1818	7.195431	32.38636
892	5.09693	3.1312552	87.9256	87.4240	7.195225	32.38560
893	5.09777	3.1312244	88.1541	87.6511	7.195139	32.38431
894	5.09827	3.1314897	88.3977	87.8933	7.194937	32.38675
895	5.09881	3.1315823	88.6383	88.1324	7.194823	32.38716
896	5.09901	3.1317922	88.8790	88.3717	7.194689	32.38925
897	5.09951	3.1319403	89.1165	88.6078	7.194551	32.39035
898	5.10025	3.1323969	89.3632	88.8530	7.194214	32.39473
899	5.10125	3.1325944	89.5945	89.0829	7.193985	32.39591
900	5.10234	3.1326809	89.8290	89.3161	7.193803	32.39572
901	5.10299	3.1332486	90.0665	89.5522	7.193419	32.40148
902	5.10358	3.1336374	90.3041	89.7884	7.193137	32.40523
903	5.10393	3.1338165	90.5415	90.0244	7.193001	32.40682
904	5.10403	3.1342362	90.7762	90.2576	7.192766	32.41142
905	5.10383	3.1345078	91.0166	90.4966	7.192650	32.41460
906	5.10433	3.1354274	91.2481	90.7267	7.192094	32.42453
907	5.10477	3.1365015	91.4888	90.9660	7.191460	32.43627
908	5.10443	3.1366806	91.7140	91.1899	7.191413	32.43855
909	5.10373	3.1368350	91.9577	91.4321	7.191424	32.44087
910	5.10299	3.1369154	92.1953	91.6683	7.191481	32.44240
911	5.10239	3.1370945	92.4298	91.9014	7.191466	32.44491
912	5.10164	3.1374279	92.6703	92.1405	7.191386	32.44933
913	5.10100	3.1375638	92.8987	92.3676	7.191401	32.45140
914	5.10065	3.1376627	93.1392	92.6066	7.191397	32.45275
915	5.10020	3.1379653	93.3677	92.8337	7.191296	32.45654
916	5.09986	3.1382309	93.6052	93.0698	7.191202	32.45980
917	5.09951	3.1383482	93.8457	93.3089	7.191189	32.46136
918	5.09936	3.1386817	94.0772	93.5391	7.191032	32.46521
919	5.09926	3.1390091	94.3149	93.7753	7.190873	32.46894
920	5.09901	3.1390091	94.5462	94.0052	7.190910	32.46906
921	5.09911	3.1398614	94.7777	94.2354	7.190441	32.47861
922	5.09931	3.1406828	95.0183	94.4745	7.189976	32.48770
923	5.09996	3.1411276	95.2558	94.7107	7.189658	32.49205
924	5.10060	3.1415786	95.4903	94.9438	7.189337	32.49647
925	5.10115	3.1418195	95.7369	95.1889	7.189142	32.49857
926	5.10120	3.1420852	96.0018	95.4522	7.188998	32.50144
927	5.10125	3.1421780	96.2639	95.7127	7.188948	32.50232
928	5.10115	3.1422954	96.5013	95.9487	7.188902	32.50364
929	5.10105	3.1423263	96.7206	96.1667	7.188903	32.50399
930	5.10120	3.1424191	96.9673	96.4119	7.188840	32.50478
931	5.10105	3.1425921	97.2109	96.6541	7.188771	32.50679
932	5.10085	3.1428022	97.4365	96.8783	7.188688	32.50927
933	5.10065	3.1428950	97.6708	97.1113	7.188669	32.51041
934	5.10030	3.1429568	97.9053	97.3443	7.188685	32.51134
935	5.10030	3.1429816	98.1369	97.5745	7.188677	32.51151
936	5.10030	3.1431052	98.3713	97.8076	7.188616	32.51281
937	5.10015	3.1431609	98.6180	98.0528	7.188610	32.51347
938	5.10001	3.1432104	98.8402	98.2737	7.188608	32.51407
939	5.09991	3.1434020	99.0869	98.5189	7.188522	32.51624
940	5.09961	3.1442980	99.3214	98.7520	7.188080	32.52667
941	5.09871	3.1449283	99.5652	98.9944	7.187859	32.53464
942	5.09757	3.1451323	99.7904	99.2182	7.187900	32.53798
943	5.09668	3.1452560	100.0218	99.4482	7.187952	32.54015
944	5.09603	3.1454353	100.2596	99.6846	7.187943	32.54272
945	5.09554	3.1456454	100.4908	99.9145	7.187898	32.54549
946	5.09514	3.1459731	100.7314	100.1536	7.187777	32.54951
947	5.09474	3.1460164	100.9540	100.3748	7.187809	32.55029
948	5.09439	3.1459732	101.1945	100.6139	7.187883	32.55001
949	5.09439	3.1457075	101.4228	100.8409	7.188032	32.54685
950	5.09454	3.1456767	101.6451	101.0618	7.188035	32.54624
951	5.09479	3.1460847	101.8889	101.3041	7.187788	32.55055
952	5.09459	3.1465730	102.1141	101.5280	7.187554	32.55623
953	5.09405	3.1469068	102.3548	101.7672	7.187449	32.56047
954	5.09315	3.1472036	102.5802	101.9913	7.187407	32.56463
955	5.09231	3.1474756	102.8114	102.2212	7.187373	32.56845
956	5.09151	3.1479208	103.0401	102.4484	7.187239	32.57421
957	5.09057	3.1480445	103.2683	102.6753	7.187297	32.57644
958	5.08992	3.1480754	103.5000	102.9056	7.187369	32.57731
959	5.08958	3.1481003	103.7406	103.1447	7.187405	32.57781
960	5.08938	3.1481374	103.9658	103.3686	7.187416	32.57832
961	5.08913	3.1481313	104.2033	103.6047	7.187456	32.57837
962	5.08908	3.1481314	104.4318	103.8318	7.187468	32.57830
963	5.08883	3.1482551	104.6632	104.0619	7.187438	32.57985
964	5.08868	3.1483293	104.9007	104.2979	7.187422	32.58073
965	5.08873	3.1483418	105.1323	104.5281	7.187415	32.58070
966	5.08863	3.1485211	105.3699	104.7643	7.187336	32.58274
967	5.08848	3.1492445	105.5861	104.9792	7.186968	32.59106
968	5.08819	3.1496897	105.8206	105.2123	7.186770	32.59634
969	5.08774	3.1498815	106.0674	105.4576	7.186729	32.59885
970	5.08749	3.1501722	106.3233	105.7119	7.186609	32.60230
971	5.08734	3.1502588	106.5606	105.9479	7.186587	32.60332
972	5.08719	3.1503207	106.7859	106.1718	7.186578	32.60406
973	5.08724	3.1503208	107.0207	106.4051	7.186577	32.60389
974	5.08719	3.1503518	107.2519	106.6350	7.186572	32.60418
975	5.08714	3.1503518	107.4896	106.8712	7.186584	32.60411
976	5.08714	3.1504137	107.7180	107.0982	7.186555	32.60471
977	5.08719	3.1505313	107.9494	107.3283	7.186491	32.60589
978	5.08724	3.1505437	108.1871	107.5645	7.186483	32.60587
979	5.08724	3.1504696	108.4216	107.7976	7.186529	32.60490
980	5.08714	3.1505624	108.6439	108.0186	7.186497	32.60595
981	5.08709	3.1506243	108.8845	108.2578	7.186475	32.60659
982	5.08719	3.1506368	109.1191	108.4910	7.186461	32.60652
983	5.08714	3.1505936	109.3504	108.7208	7.186497	32.60595
984	5.08719	3.1506245	109.5911	108.9601	7.186479	32.60614
985	5.08719	3.1506246	109.8347	109.2022	7.186485	32.60602
986	5.08714	3.1507113	110.0813	109.4474	7.186450	32.60694
987	5.08724	3.1507979	110.3037	109.6685	7.186396	32.60772
988	5.08714	3.1509835	110.5565	109.9197	7.186314	32.60982
989	5.08704	3.1513732	110.7942	110.1559	7.186121	32.61426
990	5.08675	3.1519731	111.0316	110.3919	7.185839	32.62131
991	5.08640	3.1521216	111.2752	110.6341	7.185809	32.62323
992	5.08590	3.1521279	111.5037	110.8612	7.185874	32.62367
993	5.08580	3.1520599	111.7441	111.1001	7.185929	32.62287
994	5.08585	3.1521837	111.9880	111.3425	7.185862	32.62412
995	5.08575	3.1523013	112.2194	111.5726	7.185816	32.62545
996	5.08560	3.1526044	112.4660	111.8177	7.185676	32.62895
997	5.08565	3.1523633	112.6976	112.0478	7.185806	32.62602
998	5.08570	3.1528705	112.9381	112.2869	7.185531	32.63166
999	5.08550	3.1529634	113.1818	112.5292	7.185511	32.63280
1000	5.08526	3.1529634	113.4193	112.7652	7.185549	32.63292
1001	5.08521	3.1531738	113.6660	113.0104	7.185447	32.63526
1002	5.08491	3.1532667	113.9006	113.2437	7.185440	32.63650
1003	5.08471	3.1533534	114.1534	113.4949	7.185424	32.63756
1004	5.08456	3.1533534	114.3970	113.7370	7.185449	32.63759
1005	5.08461	3.1534154	114.6346	113.9732	7.185415	32.63813
1006	5.08446	3.1534587	114.8782	114.2153	7.185416	32.63865
1007	5.08441	3.1533846	115.1371	114.4726	7.185469	32.63772
1008	5.08436	3.1535022	115.3836	114.7176	7.185417	32.63899
1009	5.08431	3.1536260	115.6273	114.9599	7.185362	32.64034
1010	5.08421	3.1537436	115.8741	115.2052	7.185317	32.64166
1011	5.08421	3.1537437	116.1269	115.4564	7.185323	32.64153
1012	5.08416	3.1537128	116.4038	115.7317	7.185352	32.64109
1013	5.08421	3.1537129	116.6962	116.0223	7.185353	32.64090
1014	5.08411	3.1535336	116.9612	116.2857	7.185469	32.63881
1015	5.08411	3.1536512	117.2019	116.5249	7.185411	32.64003
1016	5.08416	3.1538925	117.4425	116.7641	7.185279	32.64263
1017	5.08402	3.1539854	117.7074	117.0274	7.185254	32.64371
1018	5.08372	3.1540473	117.9540	117.2724	7.185265	32.64459
1019	5.08372	3.1540165	118.2100	117.5269	7.185287	32.64410
1020	5.08357	3.1540289	118.4719	117.7872	7.185306	32.64426
1021	5.08357	3.1543136	118.7213	118.0352	7.185157	32.64740
1022	5.08327	3.1543136	118.9652	118.2776	7.185201	32.64757
1023	5.08322	3.1544931	119.2301	118.5409	7.185116	32.64954
1024	5.08302	3.1544685	119.4706	118.7799	7.185161	32.64934
1025	5.08292	3.1544438	119.7296	119.0373	7.185193	32.64902
1026	5.08297	3.1544068	119.9886	119.2948	7.185213	32.64842
1027	5.08312	3.1544068	120.2412	119.5458	7.185200	32.64815
1028	5.08322	3.1543760	120.4939	119.7970	7.185210	32.64757
1029	5.08327	3.1544070	120.7469	120.0484	7.185193	32.64775
1030	5.08337	3.1544442	121.0027	120.3026	7.185166	32.64795
1031	5.08327	3.1544937	121.2555	120.5539	7.185158	32.64849
1032	5.08327	3.1546794	121.4989	120.7959	7.185063	32.65050
1033	5.08302	3.1545558	121.7489	121.0443	7.185167	32.64920
1034	5.08272	3.1545682	122.0078	121.3017	7.185205	32.64950
1035	5.08262	3.1546796	122.2635	121.5559	7.185163	32.65075
1036	5.08248	3.1545869	122.5162	121.8070	7.185238	32.64971
1037	5.08258	3.1546179	122.7662	122.0554	7.185215	32.64984
1038	5.08258	3.1546489	123.0279	122.3156	7.185204	32.65006
1039	5.08258	3.1546676	123.2746	122.5608	7.185200	32.65015
1040	5.08253	3.1547048	123.5212	122.8058	7.185192	32.65051
1041	5.08243	3.1547358	123.7740	123.0572	7.185193	32.65083
1042	5.08238	3.1547359	124.0298	123.3114	7.185206	32.65075
1043	5.08233	3.1547050	124.2615	123.5417	7.185234	32.65033
1044	5.08238	3.1547608	124.5143	123.7929	7.185204	32.65080
1045	5.08243	3.1547361	124.7640	124.0411	7.185217	32.65034
1046	5.08238	3.1547362	125.0107	124.2863	7.185229	32.65027
1047	5.08233	3.1547672	125.2511	124.5252	7.185224	32.65055
1048	5.08243	3.1548291	125.5069	124.7795	7.185184	32.65104
1049	5.08243	3.1548911	125.7475	125.0186	7.185156	32.65163
1050	5.08228	3.1549777	126.0004	125.2699	7.185134	32.65264
1051	5.08208	3.1550088	126.2530	125.5210	7.185148	32.65306
1052	5.08198	3.1551016	126.4999	125.7665	7.185117	32.65410
1053	5.08173	3.1553121	126.7617	126.0266	7.185040	32.65662
1054	5.08133	3.1553988	126.9993	126.2628	7.185050	32.65789
1055	5.08099	3.1553989	127.2643	126.5261	7.185100	32.65810
1056	5.08089	3.1554299	127.5749	126.8348	7.185103	32.65839
1057	5.08064	3.1554300	127.8490	127.1073	7.185141	32.65850
1058	5.08049	3.1553991	128.0926	127.3494	7.185183	32.65817
1059	5.08044	3.1554611	128.3394	127.5947	7.185161	32.65881
1060	5.08034	3.1554921	128.5983	127.8519	7.185163	32.65913
1061	5.08019	3.1555231	128.8296	128.0819	7.185171	32.65952
1062	5.08009	3.1555232	129.0946	128.3453	7.185190	32.65948
1063	5.08019	3.1555542	129.3323	128.5815	7.185166	32.65962
1064	5.08009	3.1556718	129.5848	128.8325	7.185121	32.66094
1065	5.07980	3.1556100	129.8316	129.0778	7.185198	32.66040
1066	5.07970	3.1556410	130.0175	129.2625	7.185198	32.66076
1067	5.07980	3.1556410	130.1271	129.3715	7.185188	32.66061
1068	5.07980	3.1557153	130.1668	129.4109	7.185149	32.66144
1069	5.08019	3.1558205	130.2189	129.4627	7.185043	32.66223
1070	5.08084	3.1557030	130.3591	129.6020	7.185027	32.66018
1071	5.08099	3.1556721	130.5600	129.8017	7.185030	32.65958
1072	5.08049	3.1557340	130.6729	129.9139	7.185062	32.66072
1073	5.07984	3.1557464	130.6852	129.9261	7.185138	32.66149
1074	5.07994	3.1558825	130.6490	129.8901	7.185051	32.66297
1075	5.08064	3.1561238	130.6429	129.8841	7.184831	32.66506
1076	5.08223	3.1560619	130.6736	129.9146	7.184663	32.66278
1077	5.08297	3.1559382	130.6952	129.9360	7.184636	32.66062
1078	5.08262	3.1559072	130.6953	129.9362	7.184697	32.66061
1079	5.08218	3.1558516	130.7077	129.9485	7.184784	32.66040
1080	5.08183	3.1557588	130.7324	129.9730	7.184879	32.65966
1081	5.08099	3.1557588	130.7508	129.9913	7.184987	32.66048
1082	5.08034	3.1557588	130.7478	129.9883	7.185070	32.66111
1083	5.08014	3.1557464	130.7116	129.9523	7.185101	32.66118
1084	5.08019	3.1560310	130.6296	129.8709	7.184938	32.66444
1085	5.08143	3.1561794	130.5233	129.7653	7.184697	32.66498
1086	5.08317	3.1563898	130.4232	129.6658	7.184359	32.66574
1087	5.08501	3.1564826	130.3227	129.5659	7.184072	32.66506
1088	5.08660	3.1561607	130.1924	129.4363	7.184041	32.65988
1089	5.08640	3.1563340	130.0554	129.3001	7.183969	32.66213
1090	5.08665	3.1563030	129.9249	129.1705	7.183951	32.66159
1091	5.08675	3.1561482	129.8093	129.0556	7.184020	32.65978
1092	5.08630	3.1560616	129.6787	128.9258	7.184120	32.65929
1093	5.08536	3.1561234	129.5664	128.8142	7.184205	32.66098
1094	5.08471	3.1562100	129.4328	128.6814	7.184237	32.66267
1095	5.08501	3.1562719	129.2928	128.5422	7.184162	32.66315
1096	5.08565	3.1561481	129.1439	128.3942	7.184143	32.66118
1097	5.08575	3.1560304	128.9889	128.2402	7.184191	32.65981
1098	5.08536	3.1558819	128.8431	128.0953	7.184318	32.65857
1099	5.08501	3.1560613	128.6940	127.9471	7.184262	32.66104
1100	5.08511	3.1560612	128.5392	127.7932	7.184246	32.66102
1101	5.08545	3.1559993	128.3900	127.6449	7.184231	32.66005
1102	5.08555	3.1559374	128.2323	127.4883	7.184249	32.65932
1103	5.08541	3.1558817	128.0741	127.3310	7.184294	32.65890
1104	5.08496	3.1559682	127.9038	127.1617	7.184300	32.66042
1105	5.08516	3.1559682	127.7274	126.9864	7.184271	32.66031
1106	5.08555	3.1560919	127.5632	126.8232	7.184149	32.66142
1107	5.08650	3.1560918	127.4175	126.6784	7.184025	32.66057
1108	5.08734	3.1558505	127.2624	126.5243	7.184045	32.65706
1109	5.08680	3.1557885	127.0830	126.3460	7.184144	32.65697
1110	5.08625	3.1559370	126.9067	126.1707	7.184129	32.65929
1111	5.08655	3.1558194	126.7305	125.9956	7.184150	32.65774
1112	5.08660	3.1556151	126.5451	125.8113	7.184250	32.65545
1113	5.08635	3.1556708	126.3656	125.6329	7.184248	32.65642
1114	5.08670	3.1557016	126.1711	125.4396	7.184182	32.65653
1115	5.08714	3.1556706	125.9703	125.2400	7.184137	32.65584
1116	5.08729	3.1557015	125.7604	125.0314	7.184096	32.65615
1117	5.08734	3.1555530	125.5538	124.8261	7.184166	32.65450
1118	5.08694	3.1554910	125.3441	124.6176	7.184245	32.65428
1119	5.08670	3.1555466	125.1220	124.3969	7.184241	32.65528
1120	5.08680	3.1554600	124.9000	124.1763	7.184270	32.65430
1121	5.08689	3.1555774	124.6932	123.9707	7.184189	32.65565
1122	5.08729	3.1556516	124.4652	123.7441	7.184093	32.65622
1123	5.08804	3.1554288	124.2494	123.5296	7.184114	32.65305
1124	5.08799	3.1553978	124.0305	123.3120	7.184132	32.65285
1125	5.08789	3.1555215	123.8115	123.0944	7.184072	32.65448
1126	5.08858	3.1555214	123.5925	122.8768	7.183978	32.65390
1127	5.08898	3.1554595	123.3552	122.6409	7.183956	32.65292
1128	5.08858	3.1553357	123.1212	122.4083	7.184068	32.65201
1129	5.08794	3.1554284	122.8869	122.1755	7.184094	32.65382
1130	5.08799	3.1553665	122.6530	121.9429	7.184116	32.65318
1131	5.08824	3.1553973	122.4186	121.7100	7.184062	32.65341
1132	5.08863	3.1552797	122.1844	121.4772	7.184070	32.65179
1133	5.08863	3.1552177	121.9505	121.2447	7.184098	32.65120
1134	5.08868	3.1552177	121.7224	121.0180	7.184086	32.65126
1135	5.08873	3.1552485	121.4820	120.7791	7.184057	32.65169
1136	5.08888	3.1551433	121.2510	120.5495	7.184090	32.65045
1137	5.08868	3.1551865	121.0168	120.3167	7.184086	32.65126
1138	5.08888	3.1550380	120.7888	120.0900	7.184136	32.64947
1139	5.08918	3.1550070	120.5517	119.8544	7.184109	32.64895
1140	5.08953	3.1549760	120.3266	119.6307	7.184076	32.64836
1141	5.08987	3.1549202	120.0862	119.3917	7.184057	32.64750
1142	5.09007	3.1548583	119.8522	119.1591	7.184059	32.64672
1143	5.09022	3.1548273	119.6270	118.9354	7.184052	32.64633
1144	5.09017	3.1547344	119.3988	118.7086	7.184103	32.64543
1145	5.08948	3.1548271	119.1678	118.4790	7.184136	32.64728
1146	5.08918	3.1545982	118.9306	118.2432	7.184293	32.64507
1147	5.08903	3.1543444	118.7027	118.0167	7.184444	32.64242
1148	5.08908	3.1543753	118.4654	117.7808	7.184415	32.64285
1149	5.08948	3.1543443	118.2372	117.5540	7.184376	32.64222
1150	5.09012	3.1542576	118.0124	117.3306	7.184335	32.64070
1151	5.09047	3.1542513	117.7537	117.0734	7.184288	32.64042
1152	5.09067	3.1543441	117.5045	116.8257	7.184207	32.64141
1153	5.09141	3.1539233	117.2794	116.6020	7.184334	32.63598
1154	5.09156	3.1539233	117.0634	116.3873	7.184310	32.63594
1155	5.09087	3.1539665	116.8355	116.1607	7.184370	32.63723
1156	5.09067	3.1540778	116.6104	115.9370	7.184330	32.63881
1157	5.09102	3.1539231	116.3792	115.7072	7.184364	32.63681
1158	5.09092	3.1537745	116.1451	115.4746	7.184451	32.63532
1159	5.09017	3.1537435	115.9199	115.2507	7.184558	32.63581
1160	5.08973	3.1538053	115.6859	115.0181	7.184576	32.63707
1161	5.08987	3.1537743	115.4546	114.7882	7.184568	32.63669
1162	5.08977	3.1536815	115.2327	114.5677	7.184626	32.63583
1163	5.08948	3.1538051	115.0018	114.3381	7.184592	32.63765
1164	5.08982	3.1538360	114.7676	114.1054	7.184525	32.63778
1165	5.09027	3.1538421	114.5332	113.8724	7.184459	32.63753
1166	5.09022	3.1538049	114.3080	113.6486	7.184480	32.63727
1167	5.09022	3.1538048	114.0832	113.4251	7.184475	32.63738
1168	5.08987	3.1538048	113.8491	113.1924	7.184514	32.63784
1169	5.08992	3.1536253	113.6209	112.9656	7.184599	32.63585
1170	5.09027	3.1529819	113.3898	112.7359	7.184898	32.62825
1171	5.09057	3.1529015	113.1648	112.5123	7.184899	32.62715
1172	5.09102	3.1528148	112.9398	112.2887	7.184883	32.62583
1173	5.09121	3.1527838	112.7085	112.0587	7.184869	32.62540
1174	5.09146	3.1527590	112.4865	111.8381	7.184846	32.62498
1175	5.09136	3.1528455	112.2557	111.6086	7.184806	32.62618
1176	5.09156	3.1527527	112.0274	111.3817	7.184826	32.62504
1177	5.09161	3.1526598	111.8115	111.1671	7.184865	32.62404
1178	5.09107	3.1526041	111.5774	110.9344	7.184959	32.62405
1179	5.09102	3.1525422	111.3491	110.7075	7.184993	32.62350
1180	5.09107	3.1525112	111.1272	110.4870	7.184999	32.62321
1181	5.09131	3.1525111	110.8900	110.2512	7.184961	32.62308
1182	5.09146	3.1523626	110.6709	110.0334	7.185018	32.62135
1183	5.09131	3.1523007	110.4490	109.8128	7.185065	32.62089
1184	5.09117	3.1523501	110.2207	109.5859	7.185052	32.62172
1185	5.09107	3.1523624	109.9865	109.3532	7.185052	32.62207
1186	5.09092	3.1522139	109.7617	109.1297	7.185146	32.62063
1187	5.09077	3.1521829	109.5365	108.9059	7.185177	32.62053
1188	5.09067	3.1520962	109.3146	108.6853	7.185231	32.61975
1189	5.09057	3.1520343	109.0866	108.4586	7.185272	32.61925
1190	5.09032	3.1519106	108.8553	108.2287	7.185365	32.61819
1191	5.09027	3.1518548	108.6271	108.0020	7.185397	32.61771
1192	5.09012	3.1518795	108.3992	107.7754	7.185397	32.61825
1193	5.09027	3.1518733	108.1771	107.5546	7.185376	32.61815
1194	5.09082	3.1518546	107.9520	107.3309	7.185311	32.61751
1195	5.09112	3.1517309	107.7271	107.1073	7.185335	32.61592
1196	5.09112	3.1514896	107.4989	106.8805	7.185460	32.61327
1197	5.09117	3.1514896	107.2709	106.6539	7.185449	32.61333
1198	5.09171	3.1511741	107.0519	106.4362	7.185545	32.60929
1199	5.09191	3.1509823	106.8268	106.2125	7.185618	32.60701
1200	5.09206	3.1508586	106.5988	105.9858	7.185661	32.60556
1201	5.09231	3.1505926	106.3857	105.7740	7.185768	32.60238
1202	5.09201	3.1505740	106.1518	105.5415	7.185811	32.60257
1203	5.09176	3.1503513	105.9266	105.3177	7.185958	32.60038
1204	5.09161	3.1502894	105.6955	105.0879	7.186005	32.59993
1205	5.09191	3.1500791	105.4827	104.8764	7.186076	32.59733
1206	5.09216	3.1497204	105.2454	104.6405	7.186233	32.59310
1207	5.09231	3.1494050	105.0235	104.4199	7.186379	32.58945
1208	5.09211	3.1491515	104.8042	104.2020	7.186537	32.58685
1209	5.09206	3.1490340	104.5824	103.9815	7.186602	32.58566
1210	5.09241	3.1487001	104.3543	103.7548	7.186733	32.58161
1211	5.09256	3.1486443	104.1322	103.5340	7.186739	32.58094
1212	5.09256	3.1485515	103.9044	103.3076	7.186784	32.57999
1213	5.09251	3.1484031	103.6852	103.0897	7.186866	32.57845
1214	5.09241	3.1483103	103.4631	102.8689	7.186923	32.57759
1215	5.09251	3.1481310	103.2440	102.6512	7.187003	32.57555
1216	5.09275	3.1479455	103.0190	102.4275	7.187066	32.57329
1217	5.09285	3.1477105	102.7879	102.1978	7.187175	32.57062
1218	5.09335	3.1474446	102.5629	101.9741	7.187251	32.56720
1219	5.09405	3.1470551	102.3438	101.7564	7.187368	32.56217
1220	5.09454	3.1468387	102.1188	101.5327	7.187417	32.55932
1221	5.09479	3.1468758	101.8969	101.3121	7.187360	32.55961
1222	5.09519	3.1468757	101.6718	101.0884	7.187304	32.55934
1223	5.09573	3.1466346	101.4468	100.8647	7.187359	32.55615
1224	5.09603	3.1463626	101.2186	100.6379	7.187463	32.55286
1225	5.09618	3.1462698	100.9995	100.4201	7.187489	32.55176
1226	5.09678	3.1461585	100.7776	100.1995	7.187468	32.55002
1227	5.09703	3.1460039	100.5616	99.9848	7.187515	32.54811
1228	5.09703	3.1459729	100.3305	99.7551	7.187526	32.54787
1229	5.09742	3.1457998	100.1084	99.5343	7.187564	32.54561
1230	5.09797	3.1457379	99.8772	99.3044	7.187523	32.54449
1231	5.09866	3.1454659	99.6491	99.0778	7.187576	32.54081
1232	5.09936	3.1451075	99.4240	98.8540	7.187676	32.53613
1233	5.09926	3.1449776	99.2020	98.6333	7.187754	32.53486
1234	5.09911	3.1448972	98.9799	98.4125	7.187811	32.53419
1235	5.09911	3.1448354	98.7489	98.1829	7.187839	32.53360
1236	5.09921	3.1446870	98.5237	97.9591	7.187902	32.53191
1237	5.09966	3.1444521	98.3048	97.7414	7.187967	32.52890
1238	5.10005	3.1442790	98.0766	97.5146	7.188004	32.52664
1239	5.10030	3.1442419	97.8516	97.2910	7.187987	32.52609
1240	5.10060	3.1440626	97.6204	97.0611	7.188041	32.52386
1241	5.10075	3.1438834	97.3834	96.8255	7.188113	32.52178
1242	5.10070	3.1438092	97.1613	96.6048	7.188155	32.52109
1243	5.10065	3.1435496	96.9392	96.3840	7.188297	32.51827
1244	5.10080	3.1432221	96.7141	96.1602	7.188450	32.51449
1245	5.10115	3.1430120	96.4951	95.9425	7.188514	32.51185
1246	5.10154	3.1427957	96.2701	95.7189	7.188575	32.50910
1247	5.10209	3.1426844	96.0482	95.4983	7.188560	32.50741
1248	5.10269	3.1424743	95.8291	95.2805	7.188593	32.50453
1249	5.10289	3.1422951	95.6070	95.0597	7.188659	32.50239
1250	5.10279	3.1422271	95.3759	94.8300	7.188703	32.50183
1251	5.10313	3.1421158	95.1569	94.6123	7.188714	32.50032
1252	5.10348	3.1420231	94.9258	94.3826	7.188714	32.49904
1253	5.10373	3.1419983	94.6977	94.1558	7.188691	32.49863
1254	5.10388	3.1420415	94.4784	93.9379	7.188643	32.49908
1255	5.10438	3.1418190	94.2596	93.7204	7.188695	32.49616
1256	5.10467	3.1416398	94.0315	93.4936	7.188749	32.49393
1257	5.10462	3.1415780	93.8065	93.2699	7.188783	32.49339
1258	5.10472	3.1413679	93.5873	93.0521	7.188879	32.49099
1259	5.10467	3.1411579	93.3534	92.8195	7.188994	32.48875
1260	5.10462	3.1410713	93.1372	92.6046	7.189042	32.48792
1261	5.10462	3.1408304	92.9151	92.3839	7.189167	32.48527
1262	5.10448	3.1401695	92.6992	92.1692	7.189539	32.47795
1263	5.10423	3.1395766	92.4680	91.9394	7.189887	32.47152
1264	5.10388	3.1390948	92.2401	91.7128	7.190187	32.46646
1265	5.10348	3.1388293	92.0209	91.4950	7.190377	32.46391
1266	5.10333	3.1385019	91.7959	91.2713	7.190568	32.46042
1267	5.10343	3.1383166	91.5738	91.0505	7.190650	32.45831
1268	5.10353	3.1381993	91.3488	90.8268	7.190696	32.45699
1269	5.10368	3.1379893	91.1296	90.6090	7.190785	32.45455
1270	5.10373	3.1379028	90.9048	90.3855	7.190821	32.45362
1271	5.10378	3.1377175	90.6794	90.1614	7.190909	32.45156
1272	5.10378	3.1375754	90.4545	89.9378	7.190981	32.45005
1273	5.10368	3.1375445	90.2356	89.7202	7.191005	32.44990
1274	5.10398	3.1374271	90.0166	89.5025	7.191026	32.44837
1275	5.10413	3.1373097	89.7915	89.2788	7.191065	32.44700
1276	5.10418	3.1370936	89.5662	89.0549	7.191170	32.44459
1277	5.10433	3.1367355	89.3445	88.8345	7.191340	32.44045
1278	5.10423	3.1365008	89.1254	88.6166	7.191475	32.43797
1279	5.10418	3.1363958	88.8940	88.3867	7.191533	32.43693
1280	5.10418	3.1361982	88.6781	88.1720	7.191635	32.43478
1281	5.10433	3.1361117	88.4532	87.9484	7.191657	32.43375
1282	5.10443	3.1359327	88.2248	87.7214	7.191736	32.43172
1283	5.10448	3.1357042	87.9997	87.4976	7.191848	32.42917
1284	5.10477	3.1353338	87.7778	87.2770	7.192006	32.42475
1285	5.10517	3.1351548	87.5527	87.0532	7.192046	32.42243
1286	5.10567	3.1348893	87.3033	86.8053	7.192121	32.41903
1287	5.10641	3.1344449	87.0752	86.5786	7.192261	32.41333
1288	5.10731	3.1339017	86.8529	86.3575	7.192436	32.40636
1289	5.10775	3.1333709	86.6401	86.1460	7.192661	32.39995
1290	5.10775	3.1332475	86.4089	85.9162	7.192722	32.39865
1291	5.10825	3.1329204	86.1898	85.6985	7.192831	32.39454
1292	5.10880	3.1323526	85.9769	85.4868	7.193064	32.38761
1293	5.10949	3.1322970	85.7580	85.2692	7.192999	32.38641
1294	5.11049	3.1324944	85.5359	85.0484	7.192760	32.38782
1295	5.11148	3.1320563	85.3171	84.8308	7.192865	32.38195
1296	5.11208	3.1318773	85.0917	84.6068	7.192880	32.37943
1297	5.11247	3.1316983	84.8758	84.3922	7.192921	32.37711
1298	5.11272	3.1317352	84.6539	84.1716	7.192864	32.37740
1299	5.11307	3.1316118	84.4348	83.9538	7.192882	32.37576
1300	5.11347	3.1316426	84.2158	83.7361	7.192809	32.37583
1301	5.11431	3.1316116	83.9907	83.5123	7.192712	32.37477
1302	5.11555	3.1315807	83.7686	83.2915	7.192565	32.37332
1303	5.11625	3.1315498	83.5374	83.0616	7.192487	32.37241
1304	5.11699	3.1314633	83.3215	82.8470	7.192433	32.37081
1305	5.11764	3.1314016	83.0994	82.6262	7.192379	32.36958
1306	5.11814	3.1314200	82.8805	82.4087	7.192300	32.36942
1307	5.11898	3.1313397	82.6643	82.1938	7.192230	32.36779
1308	5.12022	3.1308338	82.4423	81.9730	7.192340	32.36091
1309	5.12117	3.1305747	82.2202	81.7522	7.192354	32.35714
1310	5.12276	3.1305684	81.9953	81.5287	7.192148	32.35564
1311	5.12534	3.1305683	81.7731	81.3078	7.191812	32.35324
1312	5.12877	3.1303585	81.5603	81.0962	7.191482	32.34763
1313	5.13225	3.1303214	81.3382	80.8754	7.191051	32.34394
1314	5.13583	3.1302102	81.1190	80.6575	7.190648	32.33932
1315	5.13966	3.1298832	80.9001	80.4399	7.190329	32.33198
1316	5.14403	3.1297597	80.6781	80.2192	7.189831	32.32644
1317	5.14826	3.1296610	80.4561	79.9986	7.189338	32.32133
1318	5.15169	3.1295252	80.2461	79.7898	7.188967	32.31657
1319	5.15477	3.1293770	80.0210	79.5659	7.188647	32.31200
1320	5.15766	3.1291611	79.8022	79.3484	7.188390	32.30685
1321	5.16004	3.1289575	79.5890	79.1365	7.188189	32.30232
1322	5.16233	3.1288402	79.3640	78.9129	7.187954	32.29888
1323	5.16427	3.1286921	79.1480	78.6981	7.187781	32.29542
1324	5.16601	3.1285317	78.9260	78.4774	7.187639	32.29202
1325	5.16751	3.1283651	78.7069	78.2596	7.187533	32.28878
1326	5.16905	3.1281245	78.4909	78.0449	7.187461	32.28465
1327	5.17014	3.1280381	78.2659	77.8212	7.187362	32.28272
1328	5.17089	3.1279332	78.0499	77.6064	7.187318	32.28090
1329	5.17149	3.1278899	77.8338	77.3916	7.187260	32.27994
1330	5.17178	3.1279145	77.6027	77.1618	7.187203	32.28005
1331	5.17223	3.1278713	77.3715	76.9320	7.187164	32.27924
1332	5.17268	3.1277356	77.1495	76.7113	7.187175	32.27736
1333	5.17293	3.1276800	76.9335	76.4966	7.187168	32.27659
1334	5.17288	3.1275319	76.7144	76.2788	7.187249	32.27506
1335	5.17288	3.1275257	76.4984	76.0641	7.187247	32.27510
1336	5.17323	3.1270817	76.2825	75.8495	7.187437	32.26979
1337	5.17427	3.1263417	76.0664	75.6346	7.187698	32.26044
1338	5.17741	3.1259224	75.8445	75.4139	7.187518	32.25274
1339	5.18129	3.1257065	75.6194	75.1902	7.187132	32.24664
1340	5.18472	3.1255646	75.4184	74.9904	7.186765	32.24180
1341	5.18711	3.1251823	75.1873	74.7606	7.186660	32.23525
1342	5.18970	3.1249233	74.9654	74.5400	7.186463	32.22991
1343	5.19239	3.1247075	74.7586	74.3344	7.186230	32.22495
1344	5.19562	3.1247937	74.5364	74.1135	7.185764	32.22293
1345	5.19901	3.1246148	74.3143	73.8928	7.185422	32.21774
1346	5.20239	3.1246394	74.1044	73.6840	7.184971	32.21486
1347	5.20513	3.1245592	73.8763	73.4573	7.184658	32.21142
1348	5.20747	3.1245282	73.6633	73.2456	7.184370	32.20891
1349	5.20946	3.1243556	73.4413	73.0249	7.184203	32.20514
1350	5.21170	3.1243493	73.2254	72.8102	7.183915	32.20301
1351	5.21364	3.1243492	73.0032	72.5893	7.183661	32.20125
1352	5.21539	3.1242875	72.7902	72.3776	7.183466	32.19897
1353	5.21698	3.1242936	72.5681	72.1568	7.183254	32.19762
1354	5.21843	3.1241702	72.3491	71.9390	7.183130	32.19493
1355	5.21942	3.1241393	72.1392	71.7303	7.183015	32.19372
1356	5.22057	3.1241331	71.9172	71.5096	7.182866	32.19266
1357	5.22191	3.1240529	71.7011	71.2949	7.182732	32.19055
1358	5.22296	3.1239049	71.4852	71.0802	7.182673	32.18797
1359	5.22435	3.1238124	71.2723	70.8686	7.182539	32.18567
1360	5.22550	3.1238554	71.0533	70.6508	7.182364	32.18517
1361	5.22649	3.1238122	70.8404	70.4391	7.182255	32.18382
1362	5.22749	3.1238121	70.6181	70.2181	7.182123	32.18297
1363	5.22844	3.1237258	70.4084	70.0097	7.182043	32.18118
1364	5.22913	3.1236949	70.1922	69.7947	7.181966	32.18027
1365	5.22993	3.1236640	69.9733	69.5771	7.181875	32.17925
1366	5.23093	3.1234852	69.7634	69.3684	7.181839	32.17636
1367	5.23192	3.1234112	69.5413	69.1476	7.181746	32.17467
1368	5.23302	3.1233988	69.3223	68.9299	7.181607	32.17358
1369	5.23427	3.1233370	69.1091	68.7180	7.181476	32.17178
1370	5.23561	3.1233185	68.8934	68.5035	7.181309	32.17039
1371	5.23691	3.1231890	68.6804	68.2917	7.181208	32.16777
1372	5.23925	3.1230410	68.4612	68.0738	7.180983	32.16394
1373	5.24229	3.1229484	68.2453	67.8591	7.180639	32.16007
1374	5.24493	3.1228189	68.0233	67.6385	7.180366	32.15616
1375	5.24697	3.1228928	67.8072	67.4236	7.180059	32.15515
1376	5.24842	3.1227756	67.5730	67.1908	7.179932	32.15254
1377	5.25006	3.1226584	67.3480	66.9671	7.179779	32.14973
1378	5.25235	3.1226214	67.1288	66.7492	7.179501	32.14721
1379	5.25450	3.1225042	66.9158	66.5374	7.179285	32.14393
1380	5.25614	3.1225966	66.6997	66.3226	7.179020	32.14350
1381	5.25744	3.1225349	66.4839	66.1080	7.178882	32.14166
1382	5.25898	3.1224732	66.2710	65.8963	7.178713	32.13958
1383	5.26043	3.1224484	66.0488	65.6754	7.178536	32.13802
1384	5.26222	3.1224422	65.8391	65.4670	7.178305	32.13633
1385	5.26432	3.1223866	65.6200	65.2491	7.178062	32.13379
1386	5.26666	3.1222941	65.3980	65.0284	7.177807	32.13060
1387	5.26945	3.1221215	65.1818	64.8135	7.177537	32.12606
1388	5.27260	3.1219365	64.9659	64.5988	7.177230	32.12104
1389	5.27649	3.1218193	64.7500	64.3842	7.176790	32.11608
1390	5.27978	3.1217330	64.5399	64.1754	7.176411	32.11204
1391	5.28262	3.1216281	64.3088	63.9455	7.176098	32.10824
1392	5.28491	3.1214370	64.0926	63.7306	7.175903	32.10397
1393	5.28736	3.1212890	63.8860	63.5252	7.175665	32.10004
1394	5.28930	3.1213444	63.6761	63.3166	7.175381	32.09891
1395	5.29080	3.1211533	63.4568	63.0984	7.175287	32.09541
1396	5.29185	3.1209622	63.2348	62.8778	7.175251	32.09234
1397	5.29305	3.1208143	63.0218	62.6660	7.175172	32.08961
1398	5.29404	3.1207465	62.8028	62.4483	7.175076	32.08799
1399	5.29494	3.1204876	62.5869	62.2336	7.175095	32.08429
1400	5.29559	3.1200440	62.3678	62.0158	7.175245	32.07873
1401	5.29609	3.1200254	62.1488	61.7980	7.175186	32.07815
1402	5.29654	3.1198344	61.9326	61.5832	7.175226	32.07565
1403	5.29694	3.1197172	61.7167	61.3684	7.175233	32.07404
1404	5.29734	3.1196864	61.5007	61.1537	7.175194	32.07341
1405	5.29784	3.1196493	61.2908	60.9451	7.175145	32.07262
1406	5.29868	3.1195938	61.0656	60.7211	7.175061	32.07128
1407	5.29958	3.1195383	60.8527	60.5095	7.174971	32.06990
1408	5.30028	3.1195567	60.6367	60.2947	7.174867	32.06954
1409	5.30078	3.1195690	60.4145	60.0738	7.174791	32.06931
1410	5.30168	3.1196551	60.2017	59.8623	7.174625	32.06954
1411	5.30293	3.1196859	59.9856	59.6474	7.174444	32.06880
1412	5.30407	3.1196180	59.7637	59.4268	7.174329	32.06704
1413	5.30432	3.1196241	59.5445	59.2089	7.174288	32.06698
1414	5.30477	3.1199197	59.3254	58.9910	7.174067	32.07002
1415	5.30707	3.1201846	59.1155	58.7823	7.173627	32.07093
1416	5.31046	3.1202769	58.8934	58.5615	7.173139	32.06884
1417	5.31341	3.1203076	58.6743	58.3437	7.172741	32.06648
1418	5.31545	3.1203691	58.4674	58.1379	7.172441	32.06532
1419	5.31705	3.1203937	58.2395	57.9114	7.172219	32.06418
1420	5.31855	3.1204552	58.0292	57.7023	7.171989	32.06355
1421	5.32029	3.1205167	57.8012	57.4757	7.171728	32.06269
1422	5.32274	3.1205598	57.5760	57.2517	7.171387	32.06095
1423	5.32564	3.1206336	57.3599	57.0369	7.170973	32.05912
1424	5.32958	3.1205411	57.1410	56.8192	7.170513	32.05440
1425	5.33772	3.1204670	56.9220	56.6015	7.169508	32.04588
1426	5.34981	3.1203621	56.7060	56.3867	7.168015	32.03324
1427	5.36190	3.1203064	56.4871	56.1691	7.166496	32.02116
1428	5.37204	3.1204233	56.2739	55.9571	7.165133	32.01290
1429	5.37954	3.1203985	56.0395	55.7241	7.164184	32.00557
1430	5.38879	3.1202752	55.8146	55.5004	7.163065	31.99546
1431	5.39979	3.1202750	55.6044	55.2915	7.161656	31.98506
1432	5.40835	3.1203056	55.3795	55.0679	7.160544	31.97736
1433	5.41520	3.1203055	55.1604	54.8500	7.159665	31.97094
1434	5.42226	3.1202438	54.9383	54.6292	7.158793	31.96362
1435	5.42961	3.1202436	54.7192	54.4113	7.157850	31.95672
1436	5.43632	3.1203051	54.5001	54.1936	7.156957	31.95114
1437	5.44117	3.1203050	54.2751	53.9698	7.156333	31.94662
1438	5.44553	3.1202741	54.0562	53.7522	7.155789	31.94223
1439	5.45014	3.1203356	53.8277	53.5250	7.155164	31.93866
1440	5.45399	3.1203355	53.6148	53.3134	7.154668	31.93509
1441	5.45710	3.1203600	53.3958	53.0956	7.154255	31.93252
1442	5.45965	3.1203969	53.1736	52.8747	7.153905	31.93062
1443	5.46216	3.1204214	52.9423	52.6447	7.153567	31.92863
1444	5.46551	3.1204829	52.7233	52.4270	7.153102	31.92624
1445	5.47092	3.1205383	52.5013	52.2062	7.152378	31.92183
1446	5.47698	3.1205874	52.2792	51.9854	7.151575	31.91673
1447	5.48199	3.1206304	52.0631	51.7705	7.150909	31.91256
1448	5.48590	3.1206611	51.8348	51.5436	7.150390	31.90931
1449	5.48971	3.1207103	51.6068	51.3169	7.149874	31.90636
1450	5.49377	3.1207472	51.3816	51.0929	7.149332	31.90303
1451	5.49653	3.1207779	51.1565	50.8692	7.148960	31.90086
1452	5.49899	3.1208086	50.9373	50.6512	7.148626	31.89899
1453	5.50169	3.1207715	50.7062	50.4214	7.148296	31.89611
1454	5.50410	3.1208639	50.4839	50.2004	7.147936	31.89498
1455	5.50731	3.1209254	50.2527	49.9706	7.147489	31.89274
1456	5.51087	3.1209622	50.0277	49.7468	7.147012	31.88988
1457	5.51388	3.1209868	49.8025	49.5230	7.146611	31.88742
1458	5.51673	3.1210730	49.5743	49.2960	7.146196	31.88579
1459	5.51974	3.1211345	49.3429	49.0660	7.145776	31.88374
1460	5.52336	3.1211467	49.1148	48.8392	7.145305	31.88056
1461	5.52652	3.1212513	48.8836	48.6093	7.144842	31.87886
1462	5.52988	3.1213375	48.6614	48.3884	7.144364	31.87676
1463	5.53319	3.1213990	48.4272	48.1555	7.143905	31.87442
1464	5.53615	3.1214297	48.1990	47.9286	7.143507	31.87207
1465	5.53866	3.1214604	47.9707	47.7016	7.143167	31.87015
1466	5.54076	3.1215220	47.7395	47.4718	7.142861	31.86896
1467	5.54237	3.1215465	47.5084	47.2420	7.142638	31.86783
1468	5.54382	3.1216081	47.2802	47.0151	7.142416	31.86726
1469	5.54573	3.1216388	47.0518	46.7880	7.142152	31.86591
1470	5.54799	3.1217126	46.8207	46.5583	7.141820	31.86471
1471	5.55055	3.1217557	46.5926	46.3314	7.141467	31.86288
1472	5.55331	3.1218110	46.3673	46.1074	7.141082	31.86100
1473	5.55557	3.1218664	46.1361	45.8775	7.140760	31.85960
1474	5.55863	3.1220203	45.9140	45.6567	7.140285	31.85854
1475	5.56275	3.1221127	45.6886	45.4326	7.139708	31.85580
1476	5.56621	3.1221126	45.4545	45.1999	7.139262	31.85263
1477	5.56897	3.1221803	45.2264	44.9730	7.138871	31.85089
1478	5.57179	3.1222295	44.9920	44.7399	7.138482	31.84889
1479	5.57430	3.1222848	44.7667	44.5160	7.138129	31.84725
1480	5.57671	3.1223032	44.5326	44.2832	7.137808	31.84529
1481	5.57877	3.1223463	44.3044	44.0563	7.137518	31.84393
1482	5.58062	3.1224078	44.0701	43.8234	7.137244	31.84298
1483	5.58243	3.1224385	43.8479	43.6023	7.136993	31.84173
1484	5.58394	3.1224631	43.6228	43.3786	7.136784	31.84069
1485	5.58530	3.1224938	43.3916	43.1487	7.136590	31.83986
1486	5.58645	3.1225246	43.1635	42.9219	7.136422	31.83922
1487	5.58735	3.1224937	42.9290	42.6887	7.136318	31.83813
1488	5.58841	3.1225244	42.7069	42.4679	7.136163	31.83759
1489	5.58957	3.1225859	42.4786	42.2409	7.135979	31.83730
1490	5.59082	3.1226105	42.2597	42.0233	7.135801	31.83650
1491	5.59243	3.1227152	42.0285	41.7934	7.135537	31.83627
1492	5.59479	3.1227336	41.8093	41.5754	7.135222	31.83435
1493	5.59700	3.1227643	41.5812	41.3486	7.134920	31.83271
1494	5.59876	3.1228074	41.3559	41.1246	7.134669	31.83164
1495	5.60027	3.1227888	41.1338	40.9037	7.134483	31.83011
1496	5.60192	3.1228503	40.9057	40.6769	7.134235	31.82935
1497	5.60439	3.1229365	40.6773	40.4498	7.133872	31.82810
1498	5.60720	3.1229919	40.4493	40.2231	7.133480	31.82618
1499	5.60987	3.1229980	40.2211	39.9962	7.133134	31.82384
1500	5.61208	3.1230595	40.0050	39.7814	7.132816	31.82254
1501	5.61389	3.1230533	39.7799	39.5575	7.132584	31.82087
1502	5.61549	3.1230593	39.5485	39.3275	7.132372	31.81953
1503	5.61675	3.1231763	39.3235	39.1037	7.132146	31.81977
1504	5.61881	3.1233242	39.1013	38.8828	7.131801	31.81960
1505	5.62288	3.1234658	38.8700	38.6528	7.131205	31.81746
1506	5.62847	3.1237122	38.6600	38.4440	7.130362	31.81506
1507	5.63636	3.1240696	38.4290	38.2143	7.129168	31.81174
1508	5.64738	3.1243406	38.2068	37.9934	7.127624	31.80449
1509	5.65895	3.1246609	37.9753	37.7632	7.125984	31.79728
1510	5.67092	3.1252217	37.7503	37.5395	7.124167	31.79240
1511	5.68482	3.1252831	37.5128	37.3034	7.122370	31.78009
1512	5.69534	3.1257823	37.2816	37.0735	7.120770	31.77590
1513	5.70683	3.1262322	37.0657	36.8588	7.119076	31.77023
1514	5.71982	3.1264108	36.8374	36.6318	7.117333	31.76010
1515	5.72995	3.1265647	36.6153	36.4110	7.115966	31.75240
1516	5.73787	3.1270393	36.3840	36.1810	7.114712	31.75039
1517	5.74674	3.1276003	36.1680	35.9661	7.113292	31.74844
1518	5.75814	3.1286423	35.9490	35.7484	7.111302	31.74952
1519	5.77362	3.1293266	35.7267	35.5274	7.108984	31.74274
1520	5.79033	3.1298013	35.5046	35.3065	7.106623	31.73247
1521	5.80562	3.1304858	35.2856	35.0888	7.104331	31.72587
1522	5.82077	3.1310531	35.0635	34.8679	7.102120	31.71810
1523	5.83608	3.1316204	34.8474	34.6530	7.099890	31.71019
1524	5.85150	3.1323050	34.6191	34.4260	7.097587	31.70350
1525	5.86782	3.1327799	34.4001	34.2082	7.095279	31.69361
1526	5.88300	3.1331005	34.1717	33.9811	7.093197	31.68308
1527	5.89514	3.1335261	33.9558	33.7665	7.091444	31.67657
1528	5.90637	3.1336431	33.7396	33.5515	7.089966	31.66746
1529	5.91569	3.1340564	33.5177	33.3309	7.088575	31.66346
1530	5.92490	3.1344204	33.2924	33.1068	7.087223	31.65901
1531	5.93447	3.1348646	33.0765	32.8921	7.085786	31.65513
1532	5.94506	3.1351298	32.8511	32.6681	7.084314	31.64829
1533	5.95560	3.1355185	32.6412	32.4594	7.082784	31.64288
1534	5.96538	3.1357714	32.4191	32.2385	7.081421	31.63667
1535	5.97415	3.1363514	32.2002	32.0208	7.080016	31.63505
1536	5.98540	3.1373081	31.9810	31.8029	7.078104	31.63532
1537	6.00112	3.1378759	31.7618	31.5848	7.075835	31.62707
1538	6.01614	3.1382893	31.5428	31.3671	7.073734	31.61776
1539	6.02857	3.1386534	31.3328	31.1583	7.071984	31.61032
1540	6.03893	3.1388879	31.1137	30.9405	7.070562	31.60338
1541	6.04766	3.1393076	30.8975	30.7255	7.069247	31.60002
1542	6.05609	3.1394865	30.6756	30.5048	7.068095	31.59426
1543	6.06331	3.1399372	30.4625	30.2929	7.066955	31.59265
1544	6.07088	3.1405608	30.2464	30.0780	7.065683	31.59264
1545	6.08170	3.1421727	30.0334	29.8662	7.063496	31.60060
1546	6.09975	3.1426420	29.8143	29.6483	7.060995	31.58912
1547	6.11694	3.1439082	29.5891	29.4245	7.058193	31.58731
1548	6.13484	3.1442663	29.3791	29.2156	7.055769	31.57472
1549	6.14996	3.1449273	29.1570	28.9948	7.053540	31.56811
1550	6.16279	3.1456439	28.9349	28.7740	7.051568	31.56425
1551	6.17552	3.1463668	28.7128	28.5530	7.049606	31.56055
1552	6.18963	3.1480107	28.4907	28.3322	7.047003	31.56579
1553	6.20915	3.1492097	28.2745	28.1172	7.043956	31.56106
1554	6.22914	3.1495062	28.0496	27.8936	7.041312	31.54590
1555	6.24490	3.1503840	27.8334	27.6786	7.038900	31.54111
1556	6.25960	3.1512186	27.6142	27.4606	7.036644	31.53683
1557	6.27578	3.1520223	27.3892	27.2369	7.034219	31.53084
1558	6.29212	3.1527457	27.1700	27.0190	7.031818	31.52380
1559	6.30719	3.1530733	26.9480	26.7982	7.029776	31.51358
1560	6.32017	3.1538339	26.7318	26.5832	7.027775	31.51008
1561	6.33387	3.1540378	26.5158	26.3685	7.025968	31.49976
1562	6.34574	3.1547553	26.2936	26.1475	7.024129	31.49682
1563	6.35919	3.1549654	26.0836	25.9387	7.022351	31.48680
1564	6.37070	3.1552375	25.8645	25.7208	7.020783	31.47927
1565	6.38283	3.1563015	25.6484	25.5059	7.018738	31.47992
1566	6.40178	3.1579969	25.4324	25.2911	7.015533	31.48123
1567	6.42887	3.1587207	25.2224	25.0823	7.011812	31.46430
1568	6.45430	3.1592898	24.9942	24.8554	7.008379	31.44724
1569	6.47533	3.1596857	24.7811	24.6435	7.005579	31.43233
1570	6.49401	3.1604283	24.5682	24.4318	7.002896	31.42341
1571	6.51418	3.1610967	24.3490	24.2138	7.000067	31.41230
1572	6.53447	3.1615793	24.1392	24.0052	6.997319	31.39906
1573	6.55235	3.1619692	23.9232	23.7904	6.994916	31.38702
1574	6.56988	3.1619380	23.7069	23.5754	6.992768	31.37068
1575	6.58356	3.1620492	23.4909	23.3606	6.991024	31.35946
1576	6.59555	3.1624825	23.2749	23.1458	6.989327	31.35332
1577	6.60841	3.1629343	23.0589	22.9309	6.987514	31.34659
1578	6.62298	3.1634419	22.8428	22.7161	6.985465	31.33891
1579	6.63781	3.1639867	22.6327	22.5071	6.983366	31.33140
1580	6.65167	3.1644325	22.4108	22.2865	6.981437	31.32371
1581	6.66481	3.1647358	22.1915	22.0684	6.979668	31.31511
1582	6.67584	3.1649772	21.9877	21.8658	6.978189	31.30777
1583	6.68522	3.1650389	21.7625	21.6418	6.977002	31.29997
1584	6.69161	3.1651875	21.5465	21.4270	6.976138	31.29585
1585	6.69754	3.1654599	21.3273	21.2091	6.975271	31.29352
1586	6.70822	3.1664323	21.1142	20.9972	6.973474	31.29450
1587	6.73082	3.1675720	20.9043	20.7884	6.970133	31.28643
1588	6.76248	3.1682347	20.6791	20.5645	6.965923	31.26490
1589	6.79364	3.1684760	20.4660	20.3526	6.961985	31.23925
1590	6.81805	3.1690768	20.2499	20.1377	6.958698	31.22369
1591	6.84019	3.1694235	20.0279	19.9169	6.955816	31.20744
1592	6.85878	3.1696216	19.8058	19.6960	6.953443	31.19282
1593	6.87379	3.1699560	19.5867	19.4781	6.951440	31.18293
1594	6.88675	3.1703773	19.3613	19.2540	6.949647	31.17587
1595	6.90307	3.1724290	19.1391	19.0331	6.946643	31.18349
1596	6.94425	3.1741832	18.9231	18.8183	6.940760	31.16533
1597	7.00360	3.1758384	18.6948	18.5913	6.932724	31.12970
1598	7.06355	3.1760237	18.4729	18.3706	6.925344	31.07768
1599	7.10473	3.1770529	18.2507	18.1496	6.919841	31.05182
1600	7.13933	3.1776604	18.0254	17.9256	6.915347	31.02736
1601	7.16906	3.1784480	17.8064	17.7078	6.911361	31.00926
1602	7.19740	3.1794155	17.5782	17.4809	6.907458	30.99437
1603	7.23688	3.1812333	17.3468	17.2507	6.901802	30.97867
1604	7.29503	3.1829644	17.1186	17.0238	6.893944	30.94536
1605	7.35736	3.1832058	16.8871	16.7937	6.886312	30.89240
1606	7.40524	3.1863283	16.6620	16.5698	6.879052	30.88334
1607	7.48281	3.1890604	16.4430	16.3520	6.868428	30.84369
1608	7.59758	3.1928618	16.2207	16.1310	6.852876	30.78263
1609	7.74918	3.1966708	16.0017	15.9132	6.832992	30.68947
1610	7.92632	3.1994425	15.7826	15.6953	6.810652	30.56355
1611	8.09736	3.2005106	15.5605	15.4744	6.789924	30.42595
1612	8.22890	3.2019711	15.3445	15.2596	6.773749	30.32756
1613	8.33905	3.2024241	15.1282	15.0445	6.760595	30.23755
1614	8.42701	3.2030703	14.8998	14.8175	6.749987	30.16899
1615	8.50486	3.2042891	14.6717	14.5906	6.740325	30.11526
1616	8.58941	3.2051470	14.4587	14.3788	6.730066	30.05226
1617	8.67131	3.2063101	14.2395	14.1608	6.719999	29.99489
1618	8.76360	3.2085379	14.0113	13.9338	6.708277	29.93996
1619	8.91926	3.2097629	13.7922	13.7160	6.689696	29.82163
1620	9.08704	3.2114490	13.5640	13.4890	6.669591	29.69874
1621	9.27671	3.2119016	13.3327	13.2590	6.647595	29.54605
1622	9.47052	3.2122110	13.1106	13.0381	6.625288	29.38980
1623	9.65869	3.2127260	12.8914	12.8202	6.603636	29.24152
1624	9.84152	3.2131539	12.6662	12.5963	6.582721	29.09789
1625	10.00539	3.2142549	12.4441	12.3753	6.563755	28.97730
1626	10.15150	3.2162474	12.2280	12.1605	6.546492	28.88053
1627	10.28693	3.2173990	12.0118	11.9455	6.530837	28.78449
1628	10.44484	3.2169797	11.7866	11.7215	6.513368	28.65582
1629	10.59668	3.2152641	11.5676	11.5038	6.497158	28.52006
1630	10.75029	3.2138792	11.3455	11.2828	6.480671	28.38709
1631	10.90813	3.2121019	11.1201	11.0587	6.463923	28.24796
1632	11.05794	3.2114276	10.9012	10.8410	6.447678	28.12663
1633	11.16920	3.2102928	10.6728	10.6139	6.435896	28.03094
1634	11.26590	3.2096129	10.4507	10.3930	6.425558	27.95111
1635	11.35645	3.2087588	10.2194	10.1630	6.415980	27.87459
1636	11.44415	3.2085087	9.9970	9.9419	6.406500	27.80630
1637	11.52160	3.2088752	9.7752	9.7212	6.397917	27.75184
1638	11.58642	3.2089679	9.5499	9.4972	6.390828	27.70436
1639	11.64374	3.2091229	9.3247	9.2732	6.384540	27.66320
1640	11.69065	3.2094275	9.0993	9.0491	6.379332	27.63129
1641	11.72278	3.2094831	8.8772	8.8283	6.375826	27.60804
1642	11.75371	3.2091215	8.6549	8.6072	6.372611	27.58175
1643	11.78584	3.2089966	8.4235	8.3771	6.369179	27.55685
1644	11.81652	3.2085665	8.1955	8.1503	6.366021	27.53016
1645	11.84947	3.2074952	7.9762	7.9323	6.362863	27.49576
1646	11.88993	3.2073142	7.7481	7.7054	6.358559	27.46431
1647	11.93255	3.2069775	7.5259	7.4844	6.354084	27.42985
1648	11.97576	3.2075871	7.2946	7.2544	6.349196	27.40398
1649	12.01447	3.2078917	7.0754	7.0364	6.344912	27.37856
1650	12.05079	3.2075862	6.8504	6.8127	6.341117	27.34918
1651	12.09887	3.2074611	6.6250	6.5885	6.335993	27.31295
1652	12.14975	3.2074916	6.4028	6.3676	6.330518	27.27623
1653	12.18781	3.2075534	6.1867	6.1526	6.326412	27.24920
1654	12.22210	3.2074098	5.9706	5.9377	6.322790	27.22301
1655	12.25595	3.2069736	5.7545	5.7228	6.319326	27.19445
1656	12.28583	3.2053485	5.5446	5.5141	6.316727	27.15765
1657	12.31425	3.2038794	5.3254	5.2961	6.314227	27.12343
1658	12.34139	3.2030576	5.1092	5.0811	6.311628	27.09624
1659	12.36269	3.2014396	4.8964	4.8694	6.309945	27.06583
1660	12.37910	3.1990259	4.6864	4.6606	6.309077	27.03154
1661	12.39577	3.1975953	4.4702	4.4456	6.307820	27.00628
1662	12.40981	3.1970168	4.2512	4.2278	6.306530	26.99088
1663	12.41937	3.1965254	4.0441	4.0219	6.305686	26.97950
1664	12.42685	3.1960403	3.8432	3.8221	6.305064	26.96969
1665	12.43324	3.1954185	3.6242	3.6042	6.304606	26.95938
1666	12.43743	3.1946661	3.3989	3.3802	6.304432	26.94944
1667	12.44042	3.1926895	3.1737	3.1562	6.304835	26.92895
1668	12.44491	3.1886756	2.9637	2.9474	6.305824	26.88840
1669	12.45328	3.1665721	2.7445	2.7294	6.313030	26.67661
1670	12.47172	3.1579029	2.5345	2.5206	6.314226	26.58298
1671	12.49297	3.1420310	2.3245	2.3118	6.317751	26.42055
1672	12.52887	3.1272869	2.1145	2.1029	6.319275	26.25868
1673	12.59158	3.1125134	1.8985	1.8880	6.317900	26.07839
1674	12.65542	3.1032426	1.6854	1.6761	6.314382	25.94878
1675	12.70732	3.0966172	1.4814	1.4733	6.311184	25.85216
1676	12.74874	3.0920661	1.2868	1.2797	6.308361	25.78203
1677	12.78000	3.0898005	1.0981	1.0920	6.305806	25.73996
1678	12.80101	3.0899230	0.9063	0.9013	6.303495	25.72687
1679	12.81183	3.0895669	0.7266	0.7226	6.302456	25.71631
1680	12.81672	3.0889285	0.5777	0.5745	6.302157	25.70717
1681	12.81962	3.0910092	0.5015	0.4987	6.301094	25.72434
1682	12.81588	3.0975557	0.4681	0.4656	6.299138	25.78706
1683	12.81171	3.0965237	0.4681	0.4656	6.299959	25.78041
1684	12.81588	3.0960015	0.4621	0.4596	6.299698	25.77278
1685	12.82585	3.0900945	0.4409	0.4385	6.300752	25.71173
1686	12.83758	3.0905425	0.4530	0.4505	6.299328	25.70788
1687	12.84810	3.0878358	0.5202	0.5174	6.299170	25.67587
1688	12.86008	3.0861116	0.5505	0.5475	6.298501	25.65193
1689	12.87297	3.0810148	0.5202	0.5173	6.298944	25.59647
1690	12.88877	3.0792061	0.5020	0.4993	6.297892	25.56923
1691	12.89979	3.0809532	0.4198	0.4175	6.296077	25.57784
1692	12.90064	3.0826271	0.3041	0.3024	6.295384	25.59264
1693	12.89416	3.0833937	0.2038	0.2026	6.295805	25.60408
1694	12.88925	3.0777411	0.1519	0.1510	6.298361	25.55559
1695	12.89222	3.0774530	0.1491	0.1483	6.298145	25.55095
1696	12.88320	3.0772570	0.1460	0.1452	6.299187	25.55523
1697	12.84520	3.0756151	0.1461	0.1453	6.303875	25.56580
1698	12.81461	3.0738327	0.1430	0.1422	6.307819	25.57009
1699	12.79872	3.0737777	0.1521	0.1513	6.309555	25.58031
1700	12.78356	3.0758180	0.1463	0.1455	6.310456	25.60931
1701	12.77130	3.0768230	0.1523	0.1514	6.311418	25.62684
1702	12.74940	3.0770439	0.1433	0.1425	6.313706	25.64371
1703	12.71648	1.6696025	0.1494	0.1485	6.829497	13.14464
1704	12.67293	0.5023396	0.1496	0.1488	7.254171	3.61253
1705	12.63912	0.5360839	0.1525	0.1516	7.247778	3.87553
1706	12.62571	0.5181626	0.1526	0.1518	7.256136	3.73870
1707	12.61838	0.5742169	0.1434	0.1426	7.237715	4.17300
1708	12.61213	0.5571672	0.1436	0.1428	7.244665	4.04140
1709	12.58918	0.4782688	0.1464	0.1456	7.275797	3.43579
1710	12.56270	0.3954779	0.1465	0.1457	7.308647	2.80832
1711	12.54986	0.3842510	0.1497	0.1489	7.314573	2.72457
1712	12.53841	0.3682320	0.1434	0.1426	7.321919	2.60483
1713	12.52725	0.3476626	0.1438	0.1430	7.330767	2.45134
1714	12.51586	0.3323271	0.1498	0.1490	7.337853	2.33747
1715	12.50340	0.3369384	0.1468	0.1460	7.338300	2.37266
1716	12.48980	0.3546011	0.1499	0.1490	7.334454	2.50576
1717	12.47615	0.3380508	0.1439	0.1431	7.342342	2.38268
1718	12.46226	0.3190179	0.1438	0.1430	7.351109	2.24148
1719	12.44856	0.3053178	0.1440	0.1432	7.358018	2.14038
1720	12.43486	0.2907252	0.1438	0.1430	7.365225	2.03292
1721	12.42117	0.2705892	0.1440	0.1432	7.374306	1.88490
1722	12.40754	0.2668626	0.1378	0.1371	7.377805	1.85813
1723	12.39356	0.2536290	0.1469	0.1461	7.384584	1.76150
1724	12.37749	0.2652444	0.1410	0.1402	7.383290	1.84767
1725	12.35946	0.2646409	0.1411	0.1403	7.386459	1.84410
1726	12.34133	0.2633756	0.1411	0.1403	7.389875	1.83566
1727	12.32296	0.2470750	0.1440	0.1432	7.398438	1.71663
1728	12.30305	0.2274131	0.1441	0.1433	7.408384	1.57354
1729	12.28286	0.2192305	0.1442	0.1435	7.414494	1.51467
1730	12.26386	0.2079349	0.1410	0.1402	7.421456	1.43321
1731	12.24565	0.2036174	0.1411	0.1404	7.425938	1.40254
1732	12.22602	0.2186850	0.1471	0.1463	7.424115	1.51296
1733	12.20522	0.2412722	0.1442	0.1435	7.419898	1.67927
1734	12.18882	0.2562678	0.1473	0.1465	7.417494	1.79051
1735	12.18323	0.2548966	0.1474	0.1466	7.418889	1.78064
1736	12.17789	0.2488980	0.1474	0.1466	7.421829	1.73664
1737	12.17272	0.2355948	0.1442	0.1435	7.427231	1.63897
1738	12.16851	0.2228248	0.1474	0.1466	7.432280	1.54553
1739	12.16061	0.2051535	0.1381	0.1373	7.439592	1.41686
1740	12.14910	0.1883017	0.1445	0.1437	7.447209	1.29494
1741	12.13872	0.1730366	0.1444	0.1436	7.454083	1.18506
1742	12.12970	0.1650997	0.1473	0.1465	7.458257	1.12825
1743	12.11986	0.1647384	0.1443	0.1435	7.460031	1.12595
1744	12.11061	0.1589275	0.1474	0.1466	7.463531	1.08452
1745	12.10219	0.1533252	0.1474	0.1466	7.466820	1.04464
1746	12.09372	0.1444398	0.1444	0.1436	7.471211	0.98142
1747	12.08625	0.1454558	0.1443	0.1435	7.472130	0.98885
1748	12.08163	0.1487302	0.1444	0.1436	7.471817	1.01235
1749	12.08015	0.1508717	0.1476	0.1468	7.471351	1.02769
1750	12.08098	0.1614985	0.1474	0.1466	7.467653	1.10382
1751	12.08098	0.1752330	0.1413	0.1405	7.463035	1.20271
1752	12.07760	0.1755293	0.1413	0.1405	7.463502	1.20495
1753	12.07073	0.1839679	0.1475	0.1467	7.461807	1.26620
1754	12.06357	0.1825817	0.1475	0.1467	7.463479	1.25640
1755	12.05505	0.2183295	0.1445	0.1437	7.452755	1.51719
1756	12.04635	0.2386044	0.1475	0.1467	7.447260	1.66664
1757	12.04191	0.2328886	0.1505	0.1497	7.449965	1.62470
1758	12.04102	0.2195051	0.1413	0.1405	7.454700	1.52637
