Scan Count	Temperature [ITS-90, deg C]	Conductivity [S/m]	Pressure, Strain Gauge [db]	Depth [salt water, m]	Oxygen Saturation, Weiss [ml/l]	Salinity, Practical [PSU]
1	14.50181	0.0028318	0.0428	0.0426	7.123252	0.02064
2	14.50472	0.0028380	0.0428	0.0426	7.122797	0.02067
3	14.50662	0.0028349	0.0398	0.0395	7.122502	0.02065
4	14.51175	0.0028349	0.0458	0.0455	7.121704	0.02065
5	14.51828	0.0027886	0.0428	0.0425	7.120699	0.02041
6	14.51809	0.0028441	0.0397	0.0395	7.120716	0.02070
7	14.51150	0.0028380	0.0428	0.0425	7.121742	0.02067
8	14.50320	0.0028164	0.0428	0.0425	7.123039	0.02055
9	14.50136	0.0028164	0.0367	0.0365	7.123325	0.02055
10	14.50187	0.0028040	0.0457	0.0455	7.123249	0.02049
11	14.50491	0.0028164	0.0457	0.0454	7.122773	0.02055
12	14.51125	0.0028225	0.0428	0.0425	7.121785	0.02059
13	14.51910	0.0028164	0.0427	0.0424	7.120564	0.02055
14	14.52785	0.0028164	0.0428	0.0426	7.119204	0.02055
15	14.53641	0.0027176	0.0366	0.0364	7.117896	0.02003
16	14.54478	0.0028164	0.0397	0.0395	7.116572	0.02055
17	14.55366	0.0028133	0.0395	0.0393	7.115194	0.02054
18	14.56241	0.0028164	0.0395	0.0393	7.113833	0.02055
19	14.57003	0.0028164	0.0396	0.0394	7.112651	0.02055
20	14.57739	0.0028133	0.0456	0.0454	7.111509	0.02054
21	14.58311	0.0028071	0.0456	0.0454	7.110623	0.02051
22	14.58876	0.0028225	0.0427	0.0424	7.109743	0.02059
23	14.59473	0.0028164	0.0427	0.0424	7.108818	0.02056
24	14.59917	0.0028225	0.0366	0.0364	7.108128	0.02059
25	14.60000	0.0028164	0.0396	0.0394	7.108001	0.02056
26	14.59492	0.0028164	0.0427	0.0424	7.108789	0.02056
27	14.58615	0.0028133	0.0456	0.0454	7.110149	0.02054
28	14.57625	0.0028164	0.0396	0.0394	7.111685	0.02055
29	14.56552	0.0028225	0.0426	0.0424	7.113349	0.02059
30	14.55258	0.0028071	0.0456	0.0453	7.115363	0.02051
31	14.53628	0.0028164	0.0457	0.0454	7.117893	0.02055
32	14.51784	0.0028225	0.0457	0.0454	7.120760	0.02059
33	14.49750	0.0028256	0.0457	0.0454	7.123924	0.02060
34	14.47597	0.0028287	0.0426	0.0424	7.127276	0.02062
35	14.45851	0.0028256	0.0426	0.0423	7.129999	0.02060
36	14.44592	0.0028164	0.0395	0.0393	7.131964	0.02055
37	14.43460	0.0028225	0.0396	0.0394	7.133729	0.02059
38	14.42436	0.0028781	0.0334	0.0332	7.135314	0.02088
39	14.41280	0.0028225	0.0395	0.0393	7.137133	0.02059
40	14.40439	0.0028164	0.0396	0.0394	7.138447	0.02055
41	14.39896	0.0028349	0.0426	0.0424	7.139291	0.02065
42	14.39549	0.0028287	0.0518	0.0516	7.139836	0.02062
43	14.39100	0.0028349	0.0487	0.0485	7.140535	0.02065
44	14.39037	0.0028225	0.0457	0.0455	7.140637	0.02059
45	14.39404	0.0028164	0.0426	0.0424	7.140066	0.02055
46	14.39820	0.0028349	0.0518	0.0515	7.139410	0.02065
47	14.40218	0.0028287	0.0488	0.0485	7.138789	0.02062
48	14.40566	0.0028256	0.0457	0.0454	7.138247	0.02060
49	14.40919	0.0028287	0.0426	0.0423	7.137694	0.02062
50	14.41267	0.0028164	0.0456	0.0453	7.137154	0.02055
51	14.41646	0.0028164	0.0396	0.0394	7.136562	0.02055
52	14.41899	0.0028133	0.0427	0.0424	7.136168	0.02054
53	14.41949	0.0028164	0.0395	0.0393	7.136088	0.02055
54	14.42126	0.0028133	0.0457	0.0454	7.135813	0.02054
55	14.42423	0.0028164	0.0456	0.0454	7.135348	0.02055
56	14.42714	0.0028256	0.0397	0.0395	7.134892	0.02060
57	14.43068	0.0028225	0.0456	0.0454	7.134340	0.02059
58	14.43428	0.0028164	0.0396	0.0394	7.133779	0.02055
59	14.43738	0.0028225	0.0427	0.0424	7.133295	0.02059
60	14.44035	0.0028256	0.0427	0.0424	7.132830	0.02060
61	14.44320	0.0028225	0.0486	0.0484	7.132387	0.02059
62	14.44560	0.0028256	0.0427	0.0424	7.132011	0.02060
63	14.44744	0.0028256	0.0456	0.0453	7.131725	0.02060
64	14.44952	0.0028287	0.0458	0.0455	7.131399	0.02062
65	14.44927	0.0028596	0.0518	0.0515	7.131431	0.02079
66	13.89239	0.8226816	0.1065	0.1059	6.960448	5.93398
67	12.58618	1.4399320	0.1886	0.1876	6.931163	11.23261
68	11.60314	3.0033206	0.3165	0.3148	6.467710	25.74158
69	10.93029	3.0160773	0.4079	0.4056	6.539117	26.33747
70	10.46020	3.0207179	0.4809	0.4783	6.591302	26.72313
71	10.13507	3.0277714	0.5479	0.5449	6.626118	27.03257
72	9.92918	3.0337936	0.6026	0.5993	6.647619	27.24638
73	9.80900	3.0444081	0.6361	0.6326	6.657209	27.44281
74	9.74899	3.0490122	0.6483	0.6447	6.662286	27.53441
75	9.70576	3.0516696	0.6391	0.6356	6.666222	27.59401
76	9.66630	3.0557886	0.6514	0.6478	6.669096	27.66545
77	9.64658	3.0703980	0.6452	0.6417	6.665198	27.82681
78	9.66402	3.0849719	0.6574	0.6538	6.656976	27.95920
79	9.66246	3.0865793	0.6726	0.6689	6.656475	27.97649
80	9.67302	3.0936073	0.6848	0.6811	6.652266	28.03865
81	9.74599	3.0915681	0.7000	0.6962	6.644653	27.96152
82	9.80103	3.0796171	0.7122	0.7083	6.643304	27.79966
83	9.81290	3.0673475	0.7213	0.7173	6.647091	27.66823
84	9.78208	3.0612965	0.7213	0.7174	6.653234	27.63155
85	9.74476	3.0591931	0.7213	0.7174	6.658478	27.63918
86	9.71305	3.0609791	0.7213	0.7173	6.661428	27.68136
87	9.69080	3.0629795	0.7213	0.7173	6.663180	27.71845
88	9.67235	3.0645276	0.7152	0.7112	6.664680	27.74815
89	9.65585	3.0648705	0.7123	0.7084	6.666463	27.76430
90	9.64003	3.0656294	0.7122	0.7083	6.667991	27.78411
91	9.62604	3.0654827	0.7153	0.7113	6.669690	27.79345
92	9.61461	3.0655991	0.7305	0.7265	6.670978	27.80344
93	9.60706	3.0663213	0.7426	0.7386	6.671554	27.81651
94	9.60002	3.0678087	0.7456	0.7415	6.671745	27.83686
95	9.59337	3.0694372	0.7547	0.7505	6.671830	27.85834
96	9.58904	3.0703679	0.7487	0.7446	6.671939	27.87102
97	9.58477	3.0692536	0.7366	0.7325	6.672913	27.86316
98	9.57618	3.0672825	0.7243	0.7204	6.674759	27.85006
99	9.56709	3.0669827	0.7060	0.7022	6.675951	27.85411
100	9.55861	3.0658322	0.6940	0.6902	6.677435	27.84914
101	9.55202	3.0643453	0.6909	0.6871	6.678843	27.83933
102	9.55003	3.0648348	0.6910	0.6872	6.678868	27.84579
103	9.55468	3.0664993	0.7031	0.6992	6.677612	27.85888
104	9.56183	3.0687335	0.7153	0.7114	6.675821	27.87575
105	9.56792	3.0715929	0.7305	0.7265	6.673888	27.89970
106	9.57225	3.0749741	0.7396	0.7356	6.671940	27.93027
107	9.57540	3.0779215	0.7426	0.7385	6.670314	27.95738
108	9.57768	3.0787428	0.7366	0.7325	6.669698	27.96386
109	9.57546	3.0729157	0.7275	0.7235	6.672442	27.90712
110	9.56859	3.0670500	0.7335	0.7294	6.675748	27.85361
111	9.56089	3.0666461	0.7305	0.7265	6.676822	27.85553
112	9.55435	3.0677174	0.7335	0.7295	6.677131	27.87135
113	9.55114	3.0695234	0.7305	0.7265	6.676736	27.89197
114	9.55114	3.0711582	0.7274	0.7234	6.676038	27.90838
115	9.55241	3.0716788	0.7305	0.7265	6.675667	27.91261
116	9.55186	3.0712501	0.7305	0.7265	6.675915	27.90874
117	9.54903	3.0706316	0.7275	0.7236	6.676509	27.90473
118	9.54549	3.0703378	0.7336	0.7295	6.677050	27.90453
119	9.54261	3.0701480	0.7305	0.7265	6.677468	27.90486
120	9.53929	3.0696153	0.7306	0.7265	6.678085	27.90209
121	9.53430	3.0682073	0.7275	0.7235	6.679271	27.89183
122	9.52987	3.0672830	0.7245	0.7205	6.680185	27.88599
123	9.52677	3.0679013	0.7336	0.7296	6.680284	27.89460
124	9.52655	3.0715627	0.7488	0.7447	6.678745	27.93154
125	9.53353	3.0830964	0.7519	0.7477	6.672999	28.04198
126	9.56011	3.0935163	0.7458	0.7417	6.665447	28.12589
127	9.58899	3.0962675	0.7428	0.7387	6.660911	28.13092
128	9.59969	3.0885435	0.7428	0.7387	6.662954	28.04504
129	9.59642	3.0821943	0.7306	0.7266	6.666039	27.98390
130	9.58461	3.0812562	0.7184	0.7144	6.667817	27.98369
131	9.57529	3.0827464	0.7092	0.7053	6.668269	28.00590
132	9.57263	3.0834762	0.7001	0.6963	6.668268	28.01530
133	9.57186	3.0820474	0.7093	0.7054	6.668968	28.00156
134	9.56859	3.0812073	0.7244	0.7204	6.669708	27.99567
135	9.56554	3.0842123	0.7275	0.7236	6.668783	28.02821
136	9.56803	3.0910972	0.7427	0.7386	6.665555	28.09539
137	9.57879	3.1004150	0.7519	0.7478	6.660331	28.18055
138	9.59542	3.1081130	0.7640	0.7598	6.655119	28.24480
139	9.60923	3.1114662	0.7609	0.7567	6.652089	28.26762
140	9.61816	3.1113615	0.7580	0.7538	6.651097	28.25955
141	9.62593	3.1066980	0.7428	0.7387	6.652178	28.20665
142	9.63103	3.1015577	0.7367	0.7326	6.653770	28.15109
143	9.62898	3.0989765	0.7337	0.7296	6.655106	28.12681
144	9.62216	3.1005621	0.7367	0.7326	6.655225	28.14805
145	9.61860	3.1085619	0.7367	0.7326	6.652236	28.23111
146	9.62548	3.1184971	0.7396	0.7356	6.647215	28.32542
147	9.63903	3.1248744	0.7366	0.7326	6.642939	28.37876
148	9.64786	3.1274945	0.7397	0.7356	6.640806	28.39810
149	9.65141	3.1281481	0.7276	0.7236	6.640118	28.40185
150	9.66113	3.1269888	0.7215	0.7175	6.639487	28.38255
151	9.68035	3.1214043	0.7094	0.7055	6.639632	28.31141
152	9.68952	3.1138966	0.7063	0.7024	6.641752	28.22897
153	9.68247	3.1081983	0.7064	0.7025	6.644984	28.17741
154	9.66935	3.1095027	0.7185	0.7146	6.645951	28.20075
155	9.66396	3.1197718	0.7369	0.7328	6.642220	28.30793
156	9.67830	3.1312873	0.7429	0.7388	6.635683	28.41212
157	9.69486	3.1351128	0.7580	0.7539	6.632153	28.43740
158	9.71733	3.1379768	0.7702	0.7660	6.628354	28.44836
159	9.81218	3.1375499	0.7672	0.7630	6.617626	28.36932
160	9.91397	3.1351414	0.7643	0.7601	6.606954	28.26544
161	9.96948	3.1348755	0.7643	0.7601	6.600706	28.21943
162	9.99474	3.1333201	0.7398	0.7358	6.598462	28.18427
163	9.99933	3.1266401	0.7247	0.7207	6.600719	28.11430
164	10.00174	3.1175756	0.7156	0.7116	6.604219	28.02237
165	10.00981	3.1135179	0.7156	0.7116	6.604982	27.97583
166	9.99760	3.1238353	0.7187	0.7147	6.602086	28.08778
167	9.99003	3.1369492	0.7278	0.7238	6.597488	28.22403
168	9.99765	3.1427231	0.7430	0.7389	6.594211	28.27550
169	10.04761	3.1450890	0.7399	0.7358	6.587524	28.26000
170	10.14885	3.1400657	0.7400	0.7360	6.578065	28.13141
171	10.21619	3.1342682	0.7369	0.7329	6.572788	28.02196
172	10.24455	3.1314111	0.7279	0.7239	6.570736	27.97188
173	10.25008	3.1302513	0.7155	0.7116	6.570583	27.95619
174	10.25188	3.1287957	0.7217	0.7177	6.570977	27.94043
175	10.24010	3.1277043	0.7248	0.7208	6.572768	27.93872
176	10.21625	3.1328119	0.7339	0.7298	6.573382	28.00753
177	10.20938	3.1409606	0.7370	0.7330	6.570808	28.09338
178	10.22459	3.1456557	0.7552	0.7511	6.567145	28.12801
179	10.24748	3.1481834	0.7614	0.7572	6.563507	28.13525
180	10.29642	3.1471197	0.7644	0.7602	6.558394	28.08690
181	10.35333	3.1427813	0.7553	0.7512	6.553721	28.00026
182	10.38394	3.1392234	0.7463	0.7422	6.551707	27.94172
183	10.40206	3.1359697	0.7341	0.7301	6.550982	27.89584
184	10.42517	3.1314092	0.7250	0.7211	6.550221	27.83334
185	10.44756	3.1267095	0.7157	0.7118	6.549597	27.77012
186	10.44756	3.1292995	0.7310	0.7270	6.548543	27.79553
187	10.43185	3.1405383	0.7280	0.7240	6.545746	27.91791
188	10.43174	3.1466115	0.7342	0.7301	6.543286	27.97768
189	10.44109	3.1503267	0.7311	0.7271	6.540717	28.00701
190	10.47909	3.1472105	0.7251	0.7211	6.537695	27.94724
191	10.52452	3.1369746	0.7160	0.7121	6.536719	27.81214
192	10.54265	3.1279294	0.7220	0.7181	6.538334	27.70976
193	10.55367	3.1237680	0.7160	0.7121	6.538771	27.66067
194	10.56084	3.1322716	0.7190	0.7151	6.534520	27.73845
195	10.56510	3.1425567	0.7343	0.7303	6.529880	27.83588
196	10.56112	3.1466967	0.7464	0.7423	6.528654	27.87945
197	10.57221	3.1486437	0.7465	0.7424	6.526618	27.89004
198	10.61149	3.1422103	0.7434	0.7393	6.524794	27.79717
199	10.63233	3.1361217	0.7497	0.7456	6.524901	27.72182
200	10.62840	3.1343319	0.7465	0.7424	6.526065	27.70732
201	10.62709	3.1374613	0.7527	0.7485	6.524951	27.73889
202	10.63399	3.1428093	0.7497	0.7456	6.522020	27.78591
203	10.64436	3.1454289	0.7436	0.7395	6.519798	27.80362
204	10.64983	3.1458862	0.7405	0.7365	6.518999	27.80393
205	10.64892	3.1444835	0.7405	0.7365	6.519666	27.79092
206	10.64550	3.1429266	0.7406	0.7365	6.520677	27.77831
207	10.64202	3.1433096	0.7375	0.7335	6.520914	27.78470
208	10.63923	3.1460717	0.7285	0.7245	6.520116	27.81381
209	10.63832	3.1488223	0.7285	0.7245	6.519110	27.84139
210	10.63638	3.1467886	0.7164	0.7125	6.520147	27.82299
211	10.63399	3.1381712	0.7164	0.7124	6.523888	27.74060
212	10.62715	3.1314689	0.7194	0.7154	6.527360	27.68031
213	10.61086	3.1319441	0.7285	0.7245	6.529006	27.69729
214	10.60329	3.1424204	0.7438	0.7397	6.525633	27.80546
215	10.60169	3.1498737	0.7499	0.7458	6.522804	27.87958
216	10.60835	3.1538440	0.7470	0.7429	6.520454	27.91334
217	10.66437	3.1495453	0.7408	0.7367	6.515893	27.82862
218	10.71355	3.1391645	0.7408	0.7367	6.514537	27.69001
219	10.73069	3.1340901	0.7318	0.7278	6.514646	27.62761
220	10.73120	3.1324118	0.7258	0.7218	6.515261	27.61088
221	10.72326	3.1357874	0.7166	0.7127	6.514800	27.64976
222	10.72600	3.1395781	0.7257	0.7217	6.512972	27.68463
223	10.73297	3.1419991	0.7319	0.7279	6.511218	27.70295
224	10.73451	3.1447915	0.7348	0.7308	6.509926	27.72899
225	10.73172	3.1468495	0.7471	0.7430	6.509415	27.75117
226	10.72612	3.1474738	0.7472	0.7431	6.509793	27.76150
227	10.71915	3.1474182	0.7594	0.7552	6.510597	27.76623
228	10.71338	3.1465035	0.7532	0.7491	6.511611	27.76169
229	10.71104	3.1462193	0.7563	0.7521	6.511988	27.76069
230	10.71110	3.1471773	0.7594	0.7552	6.511598	27.76999
231	10.71150	3.1490008	0.7532	0.7491	6.510821	27.78748
232	10.71036	3.1493347	0.7443	0.7402	6.510815	27.79160
233	10.70881	3.1474801	0.7351	0.7310	6.511732	27.77469
234	10.71024	3.1432842	0.7138	0.7098	6.513255	27.73269
235	10.71110	3.1378185	0.7048	0.7009	6.515352	27.67875
236	10.70859	3.1357320	0.7018	0.6979	6.516472	27.66031
237	10.70396	3.1368493	0.7048	0.7009	6.516544	27.67470
238	10.70077	3.1397883	0.7078	0.7040	6.515723	27.70578
239	10.70208	3.1422403	0.7262	0.7222	6.514592	27.72869
240	10.70585	3.1445138	0.7263	0.7223	6.513256	27.74801
241	10.70853	3.1472267	0.7475	0.7434	6.511866	27.77243
242	10.70842	3.1492110	0.7628	0.7586	6.511083	27.79186
243	10.70619	3.1517339	0.7688	0.7646	6.510320	27.81816
244	10.71247	3.1525131	0.7719	0.7677	6.509303	27.82099
245	10.74308	3.1482401	0.7598	0.7556	6.507583	27.75610
246	10.77247	3.1421160	0.7507	0.7466	6.506739	27.67422
247	10.77590	3.1360585	0.7447	0.7406	6.508777	27.61268
248	10.76395	3.1329544	0.7386	0.7346	6.511362	27.59148
249	10.75109	3.1356205	0.7356	0.7315	6.511739	27.62713
250	10.74869	3.1415542	0.7387	0.7346	6.509633	27.68673
251	10.75126	3.1456812	0.7417	0.7376	6.507691	27.72498
252	10.74200	3.1476220	0.7447	0.7406	6.507952	27.75090
253	10.74903	3.1481968	0.7418	0.7377	6.506934	27.75118
254	10.78133	3.1459281	0.7357	0.7317	6.504221	27.70464
255	10.80565	3.1413127	0.7296	0.7256	6.503339	27.64137
256	10.80565	3.1367434	0.7237	0.7197	6.505164	27.59694
257	10.80084	3.1342067	0.7267	0.7227	6.506716	27.57590
258	10.80720	3.1362186	0.7267	0.7227	6.505200	27.59068
259	10.81481	3.1415782	0.7299	0.7259	6.502206	27.63705
260	10.82180	3.1449575	0.7358	0.7318	6.500075	27.66464
261	10.81842	3.1470834	0.7420	0.7380	6.499605	27.68786
262	10.81286	3.1471947	0.7451	0.7410	6.500183	27.69313
263	10.82346	3.1427765	0.7390	0.7350	6.500759	27.64218
264	10.83457	3.1374900	0.7391	0.7350	6.501623	27.58244
265	10.83491	3.1346568	0.7421	0.7380	6.502714	27.55466
266	10.83090	3.1360888	0.7482	0.7441	6.502593	27.57158
267	10.83142	3.1407133	0.7484	0.7443	6.500691	27.61613
268	10.83915	3.1439996	0.7484	0.7443	6.498514	27.64224
269	10.84459	3.1460943	0.7544	0.7503	6.497070	27.65849
270	10.84602	3.1466567	0.7515	0.7473	6.496686	27.66287
271	10.85072	3.1442713	0.7393	0.7352	6.497110	27.63616
272	10.85966	3.1389222	0.7241	0.7201	6.498240	27.57749
273	10.86029	3.1340579	0.7149	0.7110	6.500106	27.52979
274	10.85261	3.1326265	0.7150	0.7111	6.501537	27.52166
275	10.84356	3.1352245	0.7120	0.7081	6.501517	27.55368
276	10.84133	3.1388298	0.7272	0.7232	6.500331	27.59038
277	10.84322	3.1411641	0.7303	0.7263	6.499189	27.61163
278	10.84035	3.1428072	0.7365	0.7324	6.498855	27.62975
279	10.83548	3.1439996	0.7457	0.7416	6.498925	27.64500
280	10.83399	3.1444198	0.7518	0.7477	6.498924	27.65020
281	10.83846	3.1438204	0.7579	0.7538	6.498663	27.64101
282	10.84625	3.1419979	0.7488	0.7447	6.498517	27.61744
283	10.85233	3.1398053	0.7519	0.7477	6.498710	27.59157
284	10.85428	3.1377244	0.7458	0.7417	6.499321	27.56990
285	10.85176	3.1360577	0.7397	0.7356	6.500267	27.55561
286	10.84614	3.1357306	0.7399	0.7358	6.501027	27.55665
287	10.83984	3.1363109	0.7337	0.7297	6.501502	27.56702
288	10.83548	3.1368603	0.7399	0.7358	6.501771	27.57563
289	10.83331	3.1370703	0.7368	0.7328	6.501931	27.57931
290	10.83250	3.1378173	0.7430	0.7390	6.501724	27.58717
291	10.83228	3.1396820	0.7461	0.7420	6.501006	27.60546
292	10.83359	3.1417324	0.7431	0.7390	6.500040	27.62439
293	10.83537	3.1435548	0.7431	0.7390	6.499115	27.64076
294	10.83823	3.1435547	0.7370	0.7329	6.498794	27.63861
295	10.84368	3.1410035	0.7341	0.7300	6.499201	27.60972
296	10.84814	3.1379344	0.7249	0.7210	6.499924	27.57655
297	10.84780	3.1353109	0.7250	0.7210	6.501008	27.55133
298	10.84259	3.1345642	0.7342	0.7302	6.501890	27.54799
299	10.83629	3.1352370	0.7281	0.7241	6.502328	27.55926
300	10.83319	3.1364468	0.7342	0.7302	6.502193	27.57334
301	10.83376	3.1376382	0.7434	0.7393	6.501654	27.58448
302	10.83657	3.1370702	0.7404	0.7363	6.501565	27.57685
303	10.83818	3.1345457	0.7465	0.7424	6.502392	27.55112
304	10.83560	3.1337312	0.7587	0.7545	6.503006	27.54514
305	10.82913	3.1370703	0.7710	0.7667	6.502401	27.58244
306	10.82632	3.1418808	0.7649	0.7607	6.500796	27.63131
307	10.82724	3.1435919	0.7618	0.7576	6.500011	27.64725
308	10.84207	3.1379962	0.7498	0.7457	6.500580	27.58171
309	10.85978	3.1315837	0.7285	0.7245	6.501149	27.50616
310	10.87033	3.1271245	0.7163	0.7124	6.501741	27.45499
311	10.86070	3.1257805	0.7164	0.7124	6.503357	27.44916
312	10.83216	3.1298013	0.7256	0.7216	6.504959	27.50956
313	10.81859	3.1356692	0.7286	0.7246	6.504141	27.57677
314	10.81086	3.1399354	0.7348	0.7308	6.503305	27.62405
315	10.81412	3.1426592	0.7348	0.7308	6.501852	27.64808
316	10.83881	3.1400833	0.7378	0.7337	6.500114	27.60445
317	10.85668	3.1347121	0.7318	0.7278	6.500250	27.53885
318	10.85921	3.1309298	0.7289	0.7249	6.501474	27.50024
319	10.85107	3.1287588	0.7319	0.7279	6.503252	27.48526
320	10.84224	3.1280435	0.7380	0.7340	6.504528	27.48493
321	10.82798	3.1287282	0.7350	0.7309	6.505856	27.50227
322	10.81470	3.1313683	0.7441	0.7400	6.506295	27.53789
323	10.81332	3.1339967	0.7502	0.7461	6.505400	27.56446
324	10.81813	3.1367741	0.7473	0.7432	6.503752	27.58784
325	10.81985	3.1376384	0.7474	0.7433	6.503214	27.59495
326	10.81693	3.1353976	0.7565	0.7523	6.504436	27.57536
327	10.81378	3.1311092	0.7474	0.7433	6.506501	27.53606
328	10.81040	3.1267367	0.7384	0.7343	6.508626	27.49610
329	10.80319	3.1243017	0.7506	0.7465	6.510410	27.47784
330	10.79295	3.1262190	0.7475	0.7434	6.510796	27.50416
331	10.78694	3.1327505	0.7507	0.7466	6.508860	27.57219
332	10.78196	3.1383549	0.7567	0.7525	6.507178	27.63045
333	10.78677	3.1406273	0.7568	0.7527	6.505731	27.64894
334	10.81584	3.1338856	0.7476	0.7435	6.505161	27.56149
335	10.83291	3.1275688	0.7386	0.7346	6.505766	27.48732
336	10.83445	3.1251335	0.7326	0.7285	6.506563	27.46251
337	10.83159	3.1246836	0.7234	0.7195	6.507064	27.46029
338	10.83039	3.1266440	0.7205	0.7166	6.506417	27.48023
339	10.83348	3.1279573	0.7174	0.7135	6.505546	27.49067
340	10.83571	3.1283704	0.7266	0.7226	6.505131	27.49300
341	10.83491	3.1295484	0.7297	0.7257	6.504751	27.50504
342	10.83245	3.1307512	0.7298	0.7258	6.504548	27.51857
343	10.82769	3.1316149	0.7389	0.7348	6.504737	27.53053
344	10.82231	3.1321826	0.7450	0.7409	6.505115	27.54008
345	10.81721	3.1322196	0.7482	0.7441	6.505672	27.54427
346	10.81355	3.1314978	0.7573	0.7532	6.506372	27.54000
347	10.81103	3.1299496	0.7483	0.7441	6.507273	27.52685
348	10.81034	3.1289504	0.7483	0.7442	6.507749	27.51765
349	10.80960	3.1295055	0.7544	0.7503	6.507611	27.52360
350	10.80840	3.1313190	0.7484	0.7443	6.507022	27.54214
351	10.80622	3.1323308	0.7515	0.7474	6.506862	27.55360
352	10.80233	3.1312759	0.7363	0.7323	6.507720	27.54628
353	10.79913	3.1278343	0.7273	0.7233	6.509455	27.51523
354	10.79730	3.1233526	0.7272	0.7233	6.511452	27.47304
355	10.79529	3.1225761	0.7334	0.7294	6.511987	27.46700
356	10.79352	3.1254668	0.7334	0.7293	6.511032	27.49642
357	10.79094	3.1295057	0.7426	0.7386	6.509707	27.53762
358	10.78425	3.1336700	0.7457	0.7416	6.508794	27.58315
359	10.78694	3.1347993	0.7336	0.7296	6.508041	27.59212
360	10.80874	3.1303628	0.7396	0.7355	6.507365	27.53259
361	10.82202	3.1236174	0.7337	0.7297	6.508565	27.45709
362	10.81973	3.1198463	0.7276	0.7236	6.510328	27.42218
363	10.81681	3.1182633	0.7369	0.7328	6.511288	27.40899
364	10.81412	3.1231983	0.7400	0.7359	6.509621	27.45893
365	10.81120	3.1289936	0.7430	0.7389	6.507635	27.51743
366	10.80365	3.1338487	0.7431	0.7390	6.506545	27.57030
367	10.81063	3.1329724	0.7339	0.7299	6.506111	27.55654
368	10.82368	3.1253987	0.7369	0.7329	6.507667	27.47315
369	10.82517	3.1213927	0.7370	0.7329	6.509099	27.43313
370	10.81670	3.1204563	0.7402	0.7361	6.510426	27.43037
371	10.80645	3.1211218	0.7402	0.7362	6.511313	27.44450
372	10.80021	3.1236484	0.7372	0.7331	6.511005	27.47373
373	10.79930	3.1247764	0.7464	0.7423	6.510658	27.48537
374	10.79918	3.1251216	0.7465	0.7424	6.510533	27.48882
375	10.79781	3.1270636	0.7525	0.7484	6.509911	27.50872
376	10.79432	3.1306036	0.7585	0.7544	6.508889	27.54576
377	10.78648	3.1325654	0.7496	0.7455	6.508985	27.57073
378	10.78276	3.1285190	0.7375	0.7335	6.511021	27.53418
379	10.78539	3.1213315	0.7193	0.7154	6.513599	27.46232
380	10.78385	3.1154616	0.7132	0.7092	6.516120	27.40642
381	10.77899	3.1134486	0.7225	0.7185	6.517473	27.39048
382	10.73463	3.1150804	0.7346	0.7306	6.521824	27.43955
383	10.66614	3.1218688	0.7499	0.7457	6.526828	27.55714
384	10.63775	3.1290817	0.7499	0.7458	6.527127	27.64896
385	10.63011	3.1365970	0.7592	0.7550	6.524960	27.72815
386	10.67292	3.1364484	0.7530	0.7489	6.520198	27.69426
387	10.73029	3.1261456	0.7470	0.7429	6.517876	27.55053
388	10.76092	3.1188613	0.7319	0.7279	6.517344	27.45664
389	10.75137	3.1125933	0.7227	0.7187	6.520931	27.40282
390	10.71926	3.1114427	0.7260	0.7220	6.525018	27.41565
391	10.67600	3.1157337	0.7410	0.7370	6.528181	27.48990
392	10.64339	3.1230522	0.7471	0.7430	6.528919	27.58584
393	10.62157	3.1276018	0.7563	0.7522	6.529550	27.64674
394	10.60807	3.1319750	0.7626	0.7584	6.529309	27.69969
395	10.64031	3.1313701	0.7564	0.7523	6.525916	27.66937
396	10.69009	3.1237974	0.7504	0.7463	6.523349	27.55790
397	10.71955	3.1177469	0.7383	0.7343	6.522456	27.47681
398	10.70602	3.1121690	0.7203	0.7163	6.526222	27.43265
399	10.66357	3.1096403	0.7141	0.7102	6.532038	27.43984
400	10.63080	3.1099606	0.7293	0.7253	6.535619	27.46756
401	10.58883	3.1149526	0.7446	0.7406	6.538357	27.54789
402	10.57051	3.1209455	0.7508	0.7466	6.538008	27.62030
403	10.56215	3.1252226	0.7661	0.7619	6.537225	27.66846
404	10.57438	3.1276023	0.7691	0.7649	6.534880	27.68247
405	10.61769	3.1244638	0.7631	0.7589	6.531253	27.61902
406	10.65963	3.1177167	0.7570	0.7529	6.529233	27.52154
407	10.67104	3.1139237	0.7510	0.7469	6.529470	27.47598
408	10.64766	3.1107050	0.7419	0.7378	6.533410	27.46215
409	10.62288	3.1106990	0.7358	0.7318	6.536218	27.48072
410	10.61735	3.1138380	0.7359	0.7319	6.535577	27.51552
411	10.62191	3.1172983	0.7360	0.7319	6.533666	27.54587
412	10.62259	3.1191954	0.7360	0.7319	6.532824	27.56388
413	10.61667	3.1191400	0.7360	0.7320	6.533516	27.56780
414	10.61109	3.1176864	0.7422	0.7381	6.534734	27.55781
415	10.61132	3.1156727	0.7362	0.7322	6.535520	27.53798
416	10.61183	3.1145768	0.7483	0.7442	6.535905	27.52688
417	10.60944	3.1154942	0.7575	0.7533	6.535805	27.53764
418	10.60835	3.1170152	0.7607	0.7565	6.535314	27.55331
419	10.61211	3.1183085	0.7546	0.7505	6.534367	27.56311
420	10.61752	3.1190784	0.7547	0.7505	6.533444	27.56655
421	10.62157	3.1193309	0.7455	0.7414	6.532885	27.56597
422	10.62407	3.1181913	0.7456	0.7415	6.533061	27.55295
423	10.62487	3.1151677	0.7365	0.7324	6.534190	27.52284
424	10.62293	3.1114990	0.7276	0.7236	6.535889	27.48849
425	10.61496	3.1096469	0.7275	0.7235	6.537539	27.47640
426	10.60283	3.1102870	0.7366	0.7326	6.538655	27.49177
427	10.59594	3.1132719	0.7367	0.7326	6.538230	27.52611
428	10.59515	3.1161101	0.7520	0.7478	6.537174	27.55443
429	10.59372	3.1176250	0.7551	0.7509	6.536723	27.57031
430	10.59577	3.1183949	0.7642	0.7600	6.536181	27.57628
431	10.60773	3.1187643	0.7735	0.7692	6.534679	27.57086
432	10.62151	3.1186964	0.7644	0.7602	6.533148	27.55981
433	10.63228	3.1172120	0.7645	0.7603	6.532529	27.53720
434	10.63666	3.1147859	0.7523	0.7481	6.533010	27.51023
435	10.63381	3.1130438	0.7494	0.7453	6.534035	27.49537
436	10.62766	3.1114682	0.7311	0.7270	6.535366	27.48463
437	10.62379	3.1094315	0.7190	0.7150	6.536626	27.46767
438	10.62145	3.1078382	0.7160	0.7120	6.537533	27.45387
439	10.61137	3.1085457	0.7191	0.7152	6.538390	27.46835
440	10.60169	3.1112962	0.7404	0.7363	6.538377	27.50248
441	10.59913	3.1136412	0.7375	0.7334	6.537720	27.52731
442	10.59851	3.1155805	0.7497	0.7456	6.537008	27.54673
443	10.60004	3.1171507	0.7558	0.7516	6.536200	27.56091
444	10.61086	3.1169228	0.7620	0.7579	6.535068	27.55052
445	10.62356	3.1143982	0.7560	0.7519	6.534649	27.51630
446	10.62966	3.1119113	0.7559	0.7518	6.534962	27.48744
447	10.62863	3.1105821	0.7468	0.7427	6.535614	27.47525
448	10.62527	3.1095792	0.7439	0.7398	6.536399	27.46799
449	10.62430	3.1088101	0.7440	0.7399	6.536819	27.46121
450	10.62629	3.1083056	0.7379	0.7339	6.536796	27.45479
451	10.62863	3.1089577	0.7411	0.7370	6.536269	27.45940
452	10.62948	3.1106128	0.7440	0.7400	6.535505	27.47491
453	10.62994	3.1124468	0.7502	0.7461	6.534714	27.49246
454	10.63074	3.1139487	0.7534	0.7493	6.534018	27.50652
455	10.63085	3.1131238	0.7533	0.7492	6.534338	27.49838
456	10.63228	3.1099606	0.7565	0.7523	6.535452	27.46644
457	10.63330	3.1079303	0.7565	0.7524	6.536154	27.44586
458	10.63205	3.1075428	0.7566	0.7524	6.536453	27.44302
459	10.63028	3.1097575	0.7596	0.7554	6.535760	27.46595
460	10.63131	3.1129207	0.7537	0.7495	6.534368	27.49605
461	10.63279	3.1144904	0.7445	0.7405	6.533568	27.51026
462	10.63319	3.1122067	0.7293	0.7253	6.534443	27.48768
463	10.63461	3.1073705	0.7051	0.7012	6.536231	27.43943
464	10.63330	3.1039144	0.7021	0.6982	6.537773	27.40670
465	10.62612	3.1025865	0.7083	0.7044	6.539122	27.39912
466	10.59486	3.1036934	0.7235	0.7195	6.542221	27.43337
467	10.56107	3.1067439	0.7327	0.7287	6.544823	27.48858
468	10.54753	3.1099922	0.7602	0.7560	6.545044	27.53053
469	10.53787	3.1138265	0.7846	0.7803	6.544588	27.57532
470	10.54401	3.1175393	0.7907	0.7864	6.542388	27.60701
471	10.56909	3.1168000	0.7877	0.7834	6.539847	27.58083
472	10.60169	3.1091487	0.7725	0.7683	6.539244	27.48150
473	10.62362	3.1046769	0.7512	0.7471	6.538564	27.42138
474	10.62857	3.1013202	0.7392	0.7352	6.539355	27.38492
475	10.62356	3.1007732	0.7270	0.7230	6.540144	27.38335
476	10.61314	3.1031153	0.7301	0.7260	6.540382	27.41401
477	10.59543	3.1067128	0.7240	0.7200	6.540937	27.46243
478	10.58246	3.1092412	0.7454	0.7413	6.541387	27.49688
479	10.56909	3.1104042	0.7486	0.7445	6.542433	27.51832
480	10.55970	3.1111735	0.7699	0.7657	6.543186	27.53290
481	10.56078	3.1118259	0.7729	0.7686	6.542800	27.53846
482	10.56710	3.1123613	0.7731	0.7688	6.541867	27.53894
483	10.57415	3.1120596	0.7641	0.7599	6.541190	27.53068
484	10.57830	3.1099919	0.7549	0.7508	6.541555	27.50734
485	10.57540	3.1064670	0.7428	0.7387	6.543309	27.47508
486	10.56562	3.1029375	0.7215	0.7175	6.545847	27.44796
487	10.55259	3.1003191	0.7246	0.7206	6.548386	27.43215
488	10.54316	3.1003069	0.7307	0.7267	6.549464	27.43912
489	10.52673	3.1037064	0.7369	0.7328	6.549953	27.48472
490	10.51486	3.1086943	0.7523	0.7481	6.549279	27.54248
491	10.50526	3.1132359	0.7674	0.7632	6.548527	27.59419
492	10.51367	3.1138945	0.7675	0.7633	6.547305	27.59429
493	10.53747	3.1081897	0.7615	0.7573	6.546916	27.52048
494	10.55402	3.1032573	0.7585	0.7543	6.547035	27.45979
495	10.54867	3.1009338	0.7584	0.7543	6.548583	27.44110
496	10.53588	3.1004053	0.7556	0.7515	6.550251	27.44554
497	10.52793	3.1017330	0.7617	0.7575	6.550618	27.46451
498	10.52736	3.1036203	0.7648	0.7606	6.549917	27.48340
499	10.52787	3.1058893	0.7649	0.7607	6.548939	27.50521
500	10.52497	3.1070579	0.7649	0.7607	6.548795	27.51883
501	10.51997	3.1072487	0.7587	0.7546	6.549285	27.52447
502	10.51429	3.1057111	0.7650	0.7608	6.550554	27.51370
503	10.50964	3.1033869	0.7590	0.7549	6.552026	27.49447
504	10.50759	3.1012292	0.7560	0.7518	6.553135	27.47489
505	10.50583	3.1016472	0.7529	0.7487	6.553165	27.48031
506	10.50373	3.1036329	0.7469	0.7428	6.552598	27.50133
507	10.50214	3.1039403	0.7409	0.7368	6.552654	27.50554
508	10.50089	3.1018501	0.7409	0.7369	6.553644	27.48602
509	10.49936	3.0995269	0.7348	0.7308	6.554762	27.46443
510	10.49703	3.0985806	0.7411	0.7370	6.555411	27.45692
511	10.49431	3.0991091	0.7441	0.7400	6.555507	27.46414
512	10.49186	3.1008053	0.7503	0.7462	6.555096	27.48259
513	10.48999	3.1028215	0.7533	0.7492	6.554490	27.50374
514	10.48738	3.1045061	0.7626	0.7584	6.554103	27.52221
515	10.48443	3.1048813	0.7596	0.7555	6.554286	27.52811
516	10.48585	3.1045307	0.7597	0.7555	6.554267	27.52360
517	10.49096	3.1030612	0.7628	0.7586	6.554283	27.50536
518	10.49476	3.1011433	0.7689	0.7646	6.554630	27.48371
519	10.49476	3.0998465	0.7567	0.7526	6.555156	27.47102
520	10.49169	3.0994041	0.7567	0.7526	6.555685	27.46899
521	10.48766	3.0996192	0.7630	0.7588	6.556056	27.47413
522	10.48505	3.1004059	0.7630	0.7588	6.556034	27.48380
523	10.48471	3.1014077	0.7570	0.7528	6.555665	27.49387
524	10.48681	3.1021084	0.7601	0.7559	6.555142	27.49915
525	10.48908	3.1021145	0.7570	0.7529	6.554881	27.49750
526	10.49045	3.1015552	0.7633	0.7591	6.554953	27.49099
527	10.49147	3.1011741	0.7572	0.7530	6.554992	27.48650
528	10.49152	3.1008483	0.7573	0.7531	6.555117	27.48326
529	10.49135	3.1000862	0.7452	0.7411	6.555446	27.47593
530	10.49067	3.0987896	0.7422	0.7381	6.556050	27.46375
531	10.48886	3.0977881	0.7421	0.7380	6.556664	27.45531
532	10.48522	3.0975117	0.7392	0.7351	6.557190	27.45534
533	10.48114	3.0974319	0.7423	0.7382	6.557688	27.45764
534	10.47762	3.0969343	0.7484	0.7443	6.558291	27.45541
535	10.47399	3.0969527	0.7606	0.7564	6.558697	27.45832
536	10.47041	3.0985809	0.7668	0.7625	6.558443	27.47696
537	10.46934	3.1016168	0.7638	0.7596	6.557331	27.50752
538	10.47047	3.1022623	0.7669	0.7627	6.556939	27.51298
539	10.47382	3.0995272	0.7639	0.7597	6.557670	27.48366
540	10.47671	3.0970203	0.7669	0.7627	6.558360	27.45693
541	10.47643	3.0963323	0.7609	0.7567	6.558672	27.45041
542	10.47592	3.0971432	0.7549	0.7508	6.558400	27.45873
543	10.47785	3.0980217	0.7550	0.7508	6.557823	27.46589
544	10.48233	3.0978803	0.7550	0.7509	6.557370	27.46113
545	10.48551	3.0970816	0.7462	0.7421	6.557333	27.45092
546	10.48619	3.0964059	0.7490	0.7449	6.557530	27.44379
547	10.48437	3.0917080	0.7521	0.7480	6.559646	27.39916
548	10.45198	3.0532874	0.7431	0.7390	6.578986	27.04739
549	10.33840	3.0396618	0.7522	0.7481	6.597642	26.99820
550	10.22718	3.0392298	0.7492	0.7451	6.610688	27.07666
551	10.15330	3.0403896	0.7584	0.7542	6.618778	27.14325
552	10.10887	3.0398044	0.7584	0.7542	6.624179	27.17074
553	10.07231	3.0396645	0.7554	0.7513	6.628488	27.19678
554	10.04677	3.0396647	0.7525	0.7483	6.631459	27.21596
555	10.02921	3.0398479	0.7403	0.7362	6.633426	27.23097
556	10.02321	3.0399821	0.7313	0.7273	6.634068	27.23682
557	10.02433	3.0400858	0.7344	0.7304	6.633895	27.23700
558	10.02686	3.0400980	0.7496	0.7455	6.633596	27.23522
559	10.02876	3.0393294	0.7558	0.7516	6.633694	27.22618
560	10.02742	3.0392013	0.7648	0.7606	6.633905	27.22592
561	10.02361	3.0391770	0.7771	0.7728	6.634359	27.22854
562	10.01923	3.0391770	0.7832	0.7789	6.634868	27.23183
563	10.01570	3.0391465	0.7773	0.7731	6.635292	27.23419
564	10.01626	3.0393478	0.7651	0.7609	6.635143	27.23576
565	10.02164	3.0394210	0.7561	0.7519	6.634485	27.23244
566	10.02540	3.0396344	0.7408	0.7367	6.633959	27.23173
567	10.02787	3.0399638	0.7380	0.7340	6.633534	27.23313
568	10.03157	3.0401834	0.7288	0.7248	6.633012	27.23252
569	10.03634	3.0405738	0.7258	0.7218	6.632294	27.23280
570	10.04441	3.0411350	0.7289	0.7249	6.631121	27.23227
571	10.05401	3.0413057	0.7321	0.7281	6.629933	27.22675
572	10.06024	3.0415680	0.7473	0.7432	6.629100	27.22465
573	10.06540	3.0418242	0.7717	0.7674	6.628393	27.22330
574	10.07057	3.0421110	0.7688	0.7646	6.627674	27.22225
575	10.07629	3.0419095	0.7687	0.7645	6.627091	27.21596
576	10.08006	3.0419949	0.7689	0.7647	6.626619	27.21398
577	10.08303	3.0420010	0.7567	0.7525	6.626270	27.21181
578	10.08376	3.0418851	0.7415	0.7375	6.626233	27.21012
579	10.08095	3.0416410	0.7447	0.7406	6.626661	27.20982
580	10.07882	3.0415678	0.7417	0.7376	6.626939	27.21070
581	10.07989	3.0416227	0.7387	0.7347	6.626792	27.21044
582	10.08079	3.0412749	0.7418	0.7377	6.626833	27.20633
583	10.07725	3.0412201	0.7571	0.7529	6.627267	27.20844
584	10.07135	3.0408480	0.7603	0.7561	6.628107	27.20919
585	10.06495	3.0409334	0.7633	0.7591	6.628816	27.21483
586	10.06304	3.0412141	0.7724	0.7682	6.628921	27.21904
587	10.06658	3.0416229	0.7664	0.7622	6.628340	27.22042
588	10.07248	3.0417021	0.7604	0.7562	6.627621	27.21678
589	10.07680	3.0418546	0.7573	0.7532	6.627055	27.21504
590	10.07938	3.0419400	0.7484	0.7443	6.626720	27.21395
591	10.08090	3.0418851	0.7454	0.7413	6.626566	27.21227
592	10.08062	3.0417325	0.7483	0.7442	6.626662	27.21097
593	10.07882	3.0415922	0.7697	0.7655	6.626930	27.21093
594	10.07697	3.0413665	0.8581	0.8534	6.627240	27.21006
595	10.06995	3.0397804	1.0041	0.9986	6.628718	27.19960
596	10.03858	3.0376582	1.1474	1.1410	6.633254	27.20213
597	9.95559	3.0344580	1.2965	1.2894	6.644267	27.23281
598	9.83020	3.0340143	1.4823	1.4742	6.659120	27.32301
599	9.72890	3.0316749	1.6497	1.6406	6.671992	27.37647
600	9.62543	3.0312616	1.8476	1.8374	6.684341	27.45106
601	9.55457	3.0308968	2.0545	2.0432	6.692852	27.50148
602	9.51703	3.0312628	2.2464	2.2340	6.697130	27.53383
603	9.50453	3.0315860	2.4261	2.4128	6.698471	27.54660
604	9.49988	3.0310498	2.6148	2.6004	6.699253	27.54471
605	9.49186	3.0314765	2.8158	2.8003	6.700021	27.55507
606	9.49546	3.0318056	3.0076	2.9910	6.699458	27.55554
607	9.50718	3.0319335	3.2268	3.2091	6.698022	27.54774
608	9.52024	3.0317141	3.4307	3.4119	6.696577	27.53544
609	9.52174	3.0313241	3.6682	3.6480	6.696571	27.53030
610	9.51509	3.0313303	3.9118	3.8903	6.697357	27.53536
611	9.51061	3.0308673	4.1432	4.1204	6.698088	27.53406
612	9.50121	3.0309284	4.3715	4.3474	6.699177	27.54180
613	9.49092	3.0295943	4.5998	4.5745	6.700968	27.53622
614	9.46731	3.0281203	4.8343	4.8077	6.704396	27.53945
615	9.42384	3.0275970	5.0595	5.0317	6.709770	27.56750
616	9.37678	3.0255391	5.2848	5.2557	6.716239	27.58292
617	9.30703	3.0253023	5.5253	5.4949	6.724626	27.63422
618	9.25478	3.0244809	5.7628	5.7311	6.731200	27.66622
619	9.19573	3.0217970	5.9881	5.9551	6.739405	27.68473
620	9.08250	3.0210191	6.2226	6.1883	6.753269	27.76472
621	8.98128	3.0219514	6.4600	6.4244	6.764982	27.85311
622	8.95503	3.0241980	6.6944	6.6575	6.767142	27.89645
623	9.00732	3.0244532	6.9318	6.8936	6.760769	27.85800
624	9.05537	3.0227361	7.1815	7.1419	6.755778	27.80292
625	9.02612	3.0208314	7.4281	7.3871	6.760119	27.80630
626	8.93491	3.0198952	7.6686	7.6263	6.771472	27.86800
627	8.85740	3.0195613	7.8999	7.8563	6.780937	27.92533
628	8.80884	3.0189899	8.1496	8.1047	6.787039	27.95761
629	8.77418	3.0189660	8.3840	8.3378	6.791230	27.98459
630	8.74504	3.0185100	8.6215	8.5739	6.794952	28.00283
631	8.70626	3.0184801	8.8681	8.8191	6.799649	28.03307
632	8.66276	3.0186631	9.0994	9.0492	6.804827	28.06930
633	8.62515	3.0193389	9.3400	9.2885	6.809076	28.10599
634	8.60011	3.0196860	9.5744	9.5216	6.811954	28.12937
635	8.58751	3.0199114	9.8181	9.7639	6.813381	28.14160
636	8.58125	3.0201732	10.0586	10.0031	6.814026	28.14919
637	8.57725	3.0200211	10.2929	10.2361	6.814583	28.15071
638	8.57195	3.0238010	10.5181	10.4601	6.813526	28.19375
639	8.55575	3.0254878	10.7586	10.6992	6.814732	28.22396
640	8.53767	3.0248609	10.9960	10.9353	6.817208	28.23185
641	8.52579	3.0253665	11.2336	11.1716	6.818422	28.24645
642	8.51576	3.0263775	11.4618	11.3985	6.819185	28.26481
643	8.50556	3.0262437	11.6780	11.6135	6.820484	28.27150
644	8.49726	3.0267798	11.9033	11.8375	6.821252	28.28359
645	8.49030	3.0312149	12.1255	12.0585	6.820093	28.33485
646	8.47203	3.0334701	12.3387	12.2705	6.821289	28.37273
647	8.44171	3.0340922	12.5822	12.5127	6.824684	28.40345
648	8.41264	3.0350192	12.8166	12.7458	6.827790	28.43636
649	8.38844	3.0347329	13.0542	12.9821	6.830859	28.45283
650	8.35769	3.0301989	13.2885	13.2151	6.836658	28.43058
651	8.29649	3.0225019	13.5260	13.4512	6.847620	28.40006
652	8.19640	3.0169413	13.7482	13.6722	6.862390	28.42305
653	8.07367	3.0142057	13.9766	13.8994	6.878689	28.49394
654	7.96004	3.0150887	14.1988	14.1204	6.892246	28.59566
655	7.88935	3.0197248	14.4271	14.3474	6.898790	28.70206
656	7.81586	3.0177969	14.6647	14.5837	6.908753	28.74211
657	7.68990	3.0169466	14.8900	14.8076	6.924725	28.83701
658	7.57487	3.0158408	15.1151	15.0315	6.939513	28.92065
659	7.47661	3.0146924	15.3436	15.2588	6.952278	28.99024
660	7.40099	3.0136108	15.5719	15.4858	6.962223	29.04188
661	7.34001	3.0119578	15.7973	15.7099	6.970633	29.07529
662	7.27965	3.0101836	16.0286	15.9399	6.979041	29.10697
663	7.22419	3.0094549	16.2477	16.1578	6.986345	29.14578
664	7.18242	3.0082947	16.4670	16.3759	6.992152	29.16851
665	7.14783	3.0076024	16.7015	16.6090	6.996836	29.19020
666	7.11208	3.0078337	16.9206	16.8270	7.001221	29.22284
667	7.06480	3.0102164	17.1490	17.0541	7.006009	29.28841
668	7.01794	3.0141867	17.3773	17.2811	7.009968	29.37088
669	6.99019	3.0184386	17.6118	17.5143	7.011380	29.44024
670	6.97845	3.0208727	17.8827	17.7837	7.011668	29.47640
671	6.96729	3.0207329	18.1201	18.0198	7.013146	29.48434
672	6.94456	3.0187130	18.3423	18.2407	7.017004	29.48193
673	6.90810	3.0192124	18.5829	18.4800	7.021357	29.51848
674	6.87877	3.0209470	18.8172	18.7130	7.024204	29.56231
675	6.86572	3.0222436	19.0426	18.9371	7.025214	29.58746
676	6.86240	3.0213977	19.2648	19.1581	7.026054	29.58107
677	6.85495	3.0200164	19.4931	19.3851	7.027681	29.57244
678	6.84154	3.0210998	19.7184	19.6091	7.028842	29.59561
679	6.83574	3.0223598	19.9437	19.8332	7.028955	29.61414
680	6.83569	3.0222442	20.1629	20.0511	7.029023	29.61284
681	6.83103	3.0227313	20.3882	20.2752	7.029374	29.62203
682	6.82663	3.0254468	20.6196	20.5053	7.028591	29.65512
683	6.81975	3.0246493	20.8448	20.7292	7.029858	29.65233
684	6.80269	3.0238154	21.0671	20.9503	7.032429	29.65793
685	6.78144	3.0229695	21.2985	21.1804	7.035535	29.66702
686	6.75664	3.0220506	21.5176	21.3983	7.039130	29.67840
687	6.73129	3.0197992	21.7429	21.6224	7.043460	29.67580
688	6.70115	3.0154742	21.9530	21.8313	7.049433	29.65482
689	6.65574	3.0161559	22.1784	22.0553	7.054857	29.70146
690	6.61932	3.0188452	22.4006	22.2763	7.058138	29.76225
691	6.60116	3.0209813	22.6107	22.4852	7.059378	29.80124
692	6.58979	3.0219370	22.8268	22.7002	7.060347	29.82147
693	6.57873	3.0221563	23.0490	22.9211	7.061645	29.83340
694	6.56376	3.0235383	23.2683	23.1392	7.062856	29.86143
695	6.54547	3.0247562	23.4936	23.3632	7.064572	29.89061
696	6.52892	3.0263153	23.7128	23.5811	7.065893	29.92202
697	6.51690	3.0295682	23.9289	23.7960	7.065787	29.96799
698	6.50360	3.0371449	24.1452	24.0112	7.063666	30.06241
699	6.48482	3.0404022	24.3826	24.2472	7.064411	30.11449
700	6.45635	3.0392435	24.5896	24.4531	7.068609	30.12683
701	6.41146	3.0373655	24.8027	24.6649	7.075260	30.14580
702	6.36390	3.0338664	25.0281	24.8891	7.083083	30.14934
703	6.30959	3.0305394	25.2503	25.1101	7.091695	30.16075
704	6.24995	3.0281823	25.4754	25.3339	7.100512	30.18758
705	6.19452	3.0257468	25.6917	25.5490	7.108849	30.20985
706	6.14741	3.0239145	25.9201	25.7761	7.115827	30.23143
707	6.10987	3.0227705	26.1392	25.9940	7.121234	30.25213
708	6.08262	3.0219856	26.3706	26.2241	7.125141	30.26764
709	6.06244	3.0214259	26.5807	26.4330	7.128025	30.27935
710	6.04553	3.0205011	26.8030	26.6540	7.130681	30.28411
711	6.01680	3.0204832	27.0070	26.8568	7.134390	30.30950
712	5.96781	3.0225591	27.2413	27.0899	7.139624	30.37631
713	5.91746	3.0301113	27.4577	27.3050	7.142188	30.50544
714	5.86995	3.0319704	27.6920	27.5380	7.147340	30.56893
715	5.83588	3.0323486	27.9386	27.7833	7.151536	30.60387
716	5.81633	3.0345188	28.1518	27.9952	7.152926	30.64571
717	5.80461	3.0377567	28.3709	28.2131	7.152747	30.69239
718	5.79396	3.0383424	28.5840	28.4250	7.153817	30.70852
719	5.78230	3.0391111	28.8063	28.6461	7.154921	30.72761
720	5.76853	3.0393492	29.0255	28.8640	7.156575	30.74271
721	5.75824	3.0395446	29.2415	29.0788	7.157803	30.75417
722	5.74931	3.0398680	29.4577	29.2938	7.158789	30.76583
723	5.74251	3.0403501	29.6770	29.5119	7.159418	30.77733
724	5.73752	3.0420524	29.8931	29.7267	7.159173	30.80083
725	5.73137	3.0433463	30.1337	29.9660	7.159291	30.82082
726	5.72582	3.0465938	30.3591	30.1901	7.158305	30.86214
727	5.71514	3.0499281	30.5753	30.4051	7.157933	30.90917
728	5.69902	3.0515960	30.7944	30.6229	7.159135	30.94254
729	5.68849	3.0530564	31.0257	30.8529	7.159727	30.96847
730	5.68467	3.0546819	31.2359	31.0619	7.159368	30.99012
731	5.68562	3.0561794	31.4551	31.2799	7.158462	31.00593
732	5.68839	3.0603432	31.6803	31.5039	7.155920	31.04998
733	5.69519	3.0680588	31.8995	31.7218	7.150995	31.13015
734	5.70531	3.0746421	32.1065	31.9277	7.146243	31.19455
735	5.71242	3.0775221	32.3136	32.1336	7.143826	31.22019
736	5.71766	3.0794038	32.5206	32.3394	7.142172	31.23634
737	5.72154	3.0805747	32.7336	32.5512	7.141066	31.24578
738	5.72335	3.0827332	32.9347	32.7512	7.139706	31.26821
739	5.72678	3.0878003	33.1478	32.9631	7.136615	31.32177
740	5.73978	3.0934109	33.3641	33.1781	7.132020	31.37252
741	5.76313	3.0980482	33.5710	33.3839	7.126625	31.40270
742	5.78947	3.0992892	33.7842	33.5958	7.122632	31.39200
743	5.80840	3.0999896	33.9942	33.8047	7.119866	31.38215
744	5.82037	3.1007025	34.2074	34.0166	7.117980	31.37890
745	5.82870	3.1026756	34.4175	34.2256	7.115897	31.39314
746	5.83750	3.1095146	34.6367	34.4436	7.111223	31.46141
747	5.84594	3.1123884	34.8437	34.6494	7.108662	31.48561
748	5.84841	3.1139273	35.0659	34.8703	7.107553	31.50042
749	5.84634	3.1157005	35.2821	35.0852	7.106896	31.52209
750	5.84134	3.1170923	35.4923	35.2943	7.106808	31.54224
751	5.83608	3.1180409	35.7023	35.5031	7.106983	31.55767
752	5.83138	3.1186384	35.9092	35.7089	7.107270	31.56866
753	5.82658	3.1186940	36.1133	35.9118	7.107852	31.57367
754	5.82128	3.1186633	36.3202	36.1175	7.108543	31.57818
755	5.81593	3.1186942	36.5304	36.3265	7.109209	31.58344
756	5.81259	3.1187313	36.7283	36.5233	7.109615	31.58687
757	5.80971	3.1191379	36.9384	36.7322	7.109772	31.59402
758	5.80562	3.1197294	37.1668	36.9593	7.109985	31.60437
759	5.80164	3.1202655	37.3951	37.1863	7.110215	31.61401
760	5.79739	3.1214794	37.6388	37.4286	7.110123	31.63147
761	5.79109	3.1232050	37.8459	37.6345	7.110024	31.65664
762	5.78351	3.1240680	38.0558	37.8433	7.110535	31.67332
763	5.77640	3.1244934	38.2781	38.0643	7.111216	31.68466
764	5.77125	3.1260531	38.4790	38.2641	7.111056	31.70691
765	5.76475	3.1283162	38.6800	38.4639	7.110699	31.73833
766	5.75577	3.1292044	38.8749	38.6577	7.111373	31.75666
767	5.74830	3.1297720	39.0819	38.8635	7.112023	31.76996
768	5.74235	3.1302224	39.2890	39.0695	7.112544	31.78053
769	5.73802	3.1305802	39.4869	39.2663	7.112908	31.78854
770	5.73464	3.1307716	39.6940	39.4722	7.113239	31.79377
771	5.73172	3.1309074	39.9011	39.6780	7.113542	31.79796
772	5.72975	3.1309630	40.0959	39.8718	7.113766	31.80034
773	5.72864	3.1310247	40.2968	40.0716	7.113878	31.80198
774	5.72814	3.1309631	40.5070	40.2805	7.113979	31.80167
775	5.72764	3.1308768	40.7110	40.4834	7.114092	31.80107
776	5.72728	3.1309077	40.9241	40.6953	7.114125	31.80165
777	5.72703	3.1309942	41.1251	40.8951	7.114116	31.80276
778	5.72638	3.1313397	41.3260	41.0948	7.114023	31.80717
779	5.72547	3.1317408	41.5269	41.2946	7.113932	31.81244
780	5.72360	3.1320370	41.7280	41.4945	7.114016	31.81743
781	5.72245	3.1323147	41.9381	41.7035	7.114022	31.82154
782	5.72073	3.1323641	42.1360	41.9002	7.114217	31.82362
783	5.71957	3.1324876	42.3370	42.1001	7.114303	31.82601
784	5.71882	3.1329936	42.5501	42.3120	7.114138	31.83231
785	5.71700	3.1335120	42.7418	42.5026	7.114100	31.83976
786	5.71433	3.1339441	42.9369	42.6966	7.114215	31.84704
787	5.71161	3.1345119	43.1378	42.8963	7.114265	31.85590
788	5.70834	3.1349564	43.3326	43.0900	7.114450	31.86390
789	5.70446	3.1355860	43.5275	43.2838	7.114614	31.87456
790	5.70043	3.1360922	43.7223	43.4775	7.114862	31.88397
791	5.69640	3.1370739	43.9264	43.6804	7.114860	31.89873
792	5.69061	3.1378210	44.1091	43.8621	7.115203	31.91254
793	5.68396	3.1385497	44.3099	44.0618	7.115664	31.92694
794	5.67727	3.1388956	44.5171	44.2678	7.116332	31.93708
795	5.67168	3.1389883	44.7120	44.4616	7.116994	31.94333
796	5.66826	3.1390749	44.9038	44.6523	7.117385	31.94745
797	5.66584	3.1392108	45.1078	44.8551	7.117623	31.95118
798	5.66393	3.1393159	45.3087	45.0549	7.117814	31.95408
799	5.66187	3.1394086	45.4977	45.2428	7.118030	31.95699
800	5.66026	3.1394642	45.6864	45.4304	7.118208	31.95905
801	5.65915	3.1394952	45.8873	45.6301	7.118336	31.96035
802	5.65870	3.1395261	46.0853	45.8270	7.118381	31.96103
803	5.65819	3.1395262	46.2894	46.0299	7.118450	31.96141
804	5.65769	3.1395571	46.4749	46.2144	7.118501	31.96215
805	5.65729	3.1396869	46.6790	46.4173	7.118488	31.96389
806	5.65729	3.1396437	46.8738	46.6110	7.118515	31.96331
807	5.65673	3.1397055	47.0597	46.7958	7.118557	31.96444
808	5.65623	3.1397364	47.2577	46.9927	7.118609	31.96518
809	5.65583	3.1397489	47.4434	47.1774	7.118657	31.96561
810	5.65558	3.1397366	47.6321	47.3649	7.118700	31.96562
811	5.65532	3.1398231	47.8209	47.5527	7.118690	31.96674
812	5.65502	3.1397923	48.0160	47.7466	7.118749	31.96658
813	5.65447	3.1398726	48.2076	47.9372	7.118781	31.96792
814	5.65412	3.1398850	48.3874	48.1159	7.118823	31.96831
815	5.65376	3.1399715	48.5853	48.3127	7.118826	31.96952
816	5.65361	3.1399716	48.7710	48.4974	7.118850	31.96957
817	5.65306	3.1399717	48.9538	48.6791	7.118924	31.97001
818	5.65246	3.1400952	49.1486	48.8727	7.118939	31.97188
819	5.65145	3.1407191	49.3375	49.0605	7.118743	31.97978
820	5.64738	3.1416456	49.5322	49.2542	7.118774	31.99400
821	5.63993	3.1422758	49.7182	49.4391	7.119387	32.00808
822	5.63219	3.1431902	49.9008	49.6207	7.119887	32.02567
823	5.62304	3.1435611	50.0897	49.8085	7.120852	32.03847
824	5.61499	3.1438331	50.2785	49.9962	7.121728	32.04911
825	5.60876	3.1440433	50.4703	50.1869	7.122409	32.05732
826	5.60429	3.1442287	50.6620	50.3775	7.122881	32.06358
827	5.60032	3.1446675	50.8539	50.5683	7.123155	32.07222
828	5.59499	3.1448468	51.0365	50.7498	7.123737	32.07924
829	5.59027	3.1450879	51.2225	50.9348	7.124211	32.08637
830	5.58670	3.1453661	51.4082	51.1194	7.124519	32.09283
831	5.58258	3.1455701	51.5939	51.3041	7.124936	32.09897
832	5.57887	3.1455949	51.7859	51.4950	7.125396	32.10270
833	5.57625	3.1456259	51.9807	51.6886	7.125714	32.10545
834	5.57435	3.1456507	52.1665	51.8734	7.125947	32.10746
835	5.57314	3.1457497	52.3552	52.0610	7.126051	32.10964
836	5.57153	3.1458672	52.5440	52.2487	7.126196	32.11241
837	5.57043	3.1458363	52.7238	52.4275	7.126356	32.11303
838	5.56958	3.1458982	52.9034	52.6060	7.126436	32.11445
839	5.56902	3.1459044	53.0890	52.7906	7.126506	32.11496
840	5.56762	3.1459292	53.2596	52.9601	7.126675	32.11650
841	5.56626	3.1460467	53.4394	53.1390	7.126788	32.11904
842	5.56445	3.1461395	53.6191	53.3176	7.126972	32.12172
843	5.56275	3.1462199	53.7956	53.4931	7.127149	32.12418
844	5.56094	3.1464054	53.9692	53.6657	7.127283	32.12791
845	5.55838	3.1466774	54.1520	53.8474	7.127467	32.13335
846	5.55612	3.1469185	54.3470	54.0413	7.127629	32.13814
847	5.55371	3.1468877	54.5479	54.2411	7.127955	32.13999
848	5.55160	3.1470670	54.7398	54.4318	7.128131	32.14394
849	5.54990	3.1471845	54.9317	54.6226	7.128289	32.14681
850	5.54859	3.1470363	55.1114	54.8013	7.128536	32.14629
851	5.54779	3.1471847	55.3000	54.9888	7.128563	32.14864
852	5.54669	3.1474876	55.4857	55.1735	7.128547	32.15304
853	5.54433	3.1476670	55.6685	55.3552	7.128754	32.15723
854	5.54222	3.1477536	55.8543	55.5399	7.128979	32.16013
855	5.54061	3.1478464	56.0187	55.7034	7.129137	32.16264
856	5.53971	3.1478341	56.2012	55.8849	7.129262	32.16328
857	5.53891	3.1479021	56.3749	56.0576	7.129331	32.16473
858	5.53820	3.1479331	56.5486	56.2302	7.129407	32.16567
859	5.53765	3.1479331	56.7223	56.4029	7.129481	32.16611
860	5.53695	3.1479641	56.8988	56.5784	7.129558	32.16705
861	5.53600	3.1479951	57.0663	56.7450	7.129665	32.16823
862	5.53509	3.1480260	57.2431	56.9207	7.129767	32.16936
863	5.53424	3.1480817	57.4197	57.0963	7.129850	32.17072
864	5.53309	3.1481436	57.5871	57.2627	7.129967	32.17244
865	5.53123	3.1482117	57.7699	57.4445	7.130169	32.17490
866	5.52902	3.1482365	57.9527	57.6262	7.130439	32.17720
867	5.52742	3.1484158	58.1353	57.8078	7.130552	32.18068
868	5.52391	3.1486261	58.3241	57.9955	7.130888	32.18633
869	5.51779	3.1488921	58.5161	58.1864	7.131525	32.19510
870	5.51067	3.1489726	58.6926	58.3619	7.132387	32.20275
871	5.50535	3.1489851	58.8784	58.5466	7.133057	32.20790
872	5.50199	3.1490470	59.0491	58.7163	7.133453	32.21173
873	5.49888	3.1491336	59.2164	58.8826	7.133804	32.21561
874	5.49603	3.1491955	59.3841	59.0493	7.134136	32.21897
875	5.49397	3.1491956	59.5546	59.2188	7.134400	32.22086
876	5.49257	3.1492575	59.7251	59.3884	7.134548	32.22283
877	5.49162	3.1493132	59.8865	59.5489	7.134643	32.22429
878	5.49081	3.1492823	60.0661	59.7274	7.134765	32.22462
879	5.48996	3.1493566	60.2277	59.8881	7.134837	32.22620
880	5.48921	3.1494061	60.4043	60.0636	7.134910	32.22740
881	5.48831	3.1494061	60.5750	60.2334	7.135028	32.22818
882	5.48756	3.1494371	60.7454	60.4027	7.135110	32.22917
883	5.48681	3.1495114	60.9311	60.5875	7.135170	32.23064
884	5.48585	3.1495856	61.0987	60.7541	7.135255	32.23231
885	5.48450	3.1496722	61.2661	60.9205	7.135384	32.23451
886	5.48265	3.1497341	61.4368	61.0902	7.135590	32.23691
887	5.48154	3.1497960	61.6072	61.2596	7.135700	32.23858
888	5.48059	3.1498641	61.7871	61.4384	7.135789	32.24018
889	5.47989	3.1498827	61.9636	61.6139	7.135872	32.24098
890	5.47954	3.1500621	62.1372	61.7865	7.135825	32.24326
891	5.47854	3.1501858	62.3383	61.9865	7.135891	32.24553
892	5.47769	3.1502725	62.5179	62.1650	7.135956	32.24724
893	5.47668	3.1503653	62.6946	62.3407	7.136038	32.24917
894	5.47593	3.1504272	62.8682	62.5133	7.136104	32.25050
895	5.47513	3.1505756	63.0418	62.6859	7.136131	32.25287
896	5.47408	3.1506623	63.2124	62.8555	7.136222	32.25478
897	5.47283	3.1509715	63.3708	63.0130	7.136220	32.25941
898	5.47147	3.1512931	63.5412	63.1824	7.136224	32.26427
899	5.47032	3.1516271	63.7087	63.3490	7.136196	32.26908
900	5.46887	3.1515963	63.8732	63.5125	7.136400	32.27005
901	5.46777	3.1519860	64.0439	63.6822	7.136336	32.27544
902	5.46656	3.1521097	64.2142	63.8515	7.136427	32.27792
903	5.46546	3.1521654	64.3695	64.0059	7.136540	32.27953
904	5.46481	3.1527964	64.5371	64.1725	7.136291	32.28723
905	5.46421	3.1530067	64.6925	64.3270	7.136259	32.29011
906	5.46331	3.1530624	64.8509	64.4845	7.136347	32.29154
907	5.46286	3.1534274	65.0123	64.6450	7.136214	32.29603
908	5.46246	3.1536625	65.1739	64.8057	7.136143	32.29900
909	5.46206	3.1536626	65.3443	64.9750	7.136198	32.29930
910	5.46145	3.1535761	65.5027	65.1325	7.136324	32.29882
911	5.46110	3.1536318	65.6611	65.2900	7.136342	32.29971
912	5.46075	3.1536937	65.8256	65.4536	7.136357	32.30067
913	5.46070	3.1538175	65.9990	65.6260	7.136302	32.30204
914	5.46075	3.1540588	66.1606	65.7866	7.136171	32.30465
915	5.46060	3.1541454	66.3221	65.9471	7.136148	32.30569
916	5.46060	3.1542011	66.4774	66.1015	7.136122	32.30625
917	5.46035	3.1542940	66.6297	66.2530	7.136107	32.30747
918	5.46010	3.1543868	66.7851	66.4075	7.136093	32.30869
919	5.45960	3.1544487	66.9403	66.5618	7.136127	32.30979
920	5.45955	3.1544735	67.0897	66.7103	7.136124	32.31005
921	5.45955	3.1544241	67.2451	66.8647	7.136154	32.30941
922	5.45940	3.1542942	67.4035	67.0222	7.136245	32.30801
923	5.45965	3.1542077	67.5464	67.1644	7.136263	32.30671
924	5.45965	3.1542077	67.6897	67.3068	7.136266	32.30664
925	5.45965	3.1542325	67.8511	67.4672	7.136257	32.30685
926	5.45945	3.1543253	68.0065	67.6218	7.136236	32.30801
927	5.45920	3.1547770	68.1770	67.7913	7.136032	32.31329
928	5.45775	3.1551050	68.3475	67.9607	7.136045	32.31833
929	5.45590	3.1550803	68.5120	68.1243	7.136297	32.31975
930	5.45509	3.1551546	68.6735	68.2849	7.136362	32.32128
931	5.45409	3.1557115	68.8412	68.4516	7.136197	32.32848
932	5.45239	3.1557672	68.9933	68.6028	7.136386	32.33068
933	5.45109	3.1558911	69.1730	68.7814	7.136489	32.33325
934	5.45029	3.1562809	69.3437	68.9512	7.136387	32.33836
935	5.44893	3.1563553	69.5295	69.1359	7.136522	32.34041
936	5.44778	3.1565781	69.6818	69.2873	7.136553	32.34398
937	5.44628	3.1568504	69.8279	69.4326	7.136601	32.34844
938	5.44398	3.1571537	69.9984	69.6021	7.136735	32.35402
939	5.44168	3.1573023	70.1537	69.7565	7.136951	32.35785
940	5.43952	3.1575623	70.3122	69.9140	7.137088	32.36280
941	5.43712	3.1575995	70.4737	70.0746	7.137376	32.36546
942	5.43572	3.1579028	70.6442	70.2441	7.137396	32.37017
943	5.43377	3.1582309	70.8088	70.4077	7.137472	32.37569
944	5.43171	3.1583857	70.9579	70.5560	7.137652	32.37936
945	5.43031	3.1586767	71.1254	70.7225	7.137678	32.38393
946	5.42896	3.1588934	71.2838	70.8800	7.137738	32.38761
947	5.42756	3.1592277	71.4482	71.0434	7.137741	32.39268
948	5.42631	3.1593763	71.6189	71.2131	7.137824	32.39549
949	5.42561	3.1595250	71.7894	71.3826	7.137837	32.39777
950	5.42496	3.1596922	71.9541	71.5463	7.137834	32.40022
951	5.42446	3.1596489	72.1123	71.7036	7.137924	32.40013
952	5.42416	3.1596489	72.2829	71.8732	7.137966	32.40034
953	5.42406	3.1596490	72.4475	72.0368	7.137982	32.40035
954	5.42426	3.1599462	72.6149	72.2033	7.137803	32.40345
955	5.42361	3.1604229	72.7824	72.3698	7.137635	32.40941
956	5.42236	3.1605777	72.9499	72.5363	7.137715	32.41229
957	5.42100	3.1607326	73.1145	72.6999	7.137807	32.41528
958	5.42025	3.1607884	73.2881	72.8725	7.137876	32.41655
959	5.41955	3.1609432	73.4374	73.0209	7.137885	32.41891
960	5.41890	3.1610919	73.6170	73.1995	7.137893	32.42114
961	5.41810	3.1613953	73.7907	73.3722	7.137836	32.42527
962	5.41705	3.1617854	73.9490	73.5296	7.137765	32.43064
963	5.41545	3.1617545	74.1136	73.6932	7.137988	32.43176
964	5.41445	3.1622376	74.2839	73.8625	7.137861	32.43813
965	5.41295	3.1622377	74.4578	74.0354	7.138054	32.43949
966	5.41180	3.1628074	74.6282	74.2048	7.137900	32.44699
967	5.40995	3.1630490	74.7837	74.3594	7.138009	32.45145
968	5.40780	3.1632906	74.9543	74.5290	7.138156	32.45619
969	5.40620	3.1636499	75.1217	74.6954	7.138171	32.46174
970	5.40419	3.1635942	75.2952	74.8679	7.138457	32.46296
971	5.40329	3.1634704	75.4749	75.0466	7.138641	32.46233
972	5.40299	3.1632909	75.6395	75.2102	7.138778	32.46050
973	5.40329	3.1636811	75.8010	75.3707	7.138536	32.46457
974	5.40254	3.1639536	75.9745	75.5432	7.138490	32.46830
975	5.40129	3.1640156	76.1421	75.7099	7.138619	32.47014
976	5.40034	3.1639847	76.3187	75.8854	7.138759	32.47062
977	5.39984	3.1639229	76.4924	76.0581	7.138859	32.47031
978	5.39964	3.1640468	76.6781	76.2427	7.138823	32.47182
979	5.39949	3.1642574	76.8670	76.4305	7.138734	32.47427
980	5.39879	3.1644061	77.0375	76.6000	7.138747	32.47655
981	5.39819	3.1645239	77.2111	76.7726	7.138764	32.47839
982	5.39724	3.1650628	77.3938	76.9542	7.138601	32.48534
983	5.39514	3.1651930	77.5554	77.1148	7.138801	32.48878
984	5.39279	3.1651931	77.7230	77.2815	7.139102	32.49097
985	5.39149	3.1651002	77.9025	77.4599	7.139320	32.49109
986	5.39104	3.1651622	78.0701	77.6265	7.139347	32.49214
987	5.39064	3.1652862	78.2466	77.8020	7.139336	32.49385
988	5.38999	3.1655836	78.4204	77.9747	7.139263	32.49778
989	5.38909	3.1659429	78.6063	78.1596	7.139190	32.50264
990	5.38744	3.1664882	78.7797	78.3319	7.139112	32.51036
991	5.38529	3.1674796	78.9473	78.4986	7.138858	32.52363
992	5.38184	3.1676655	79.1179	78.6682	7.139199	32.52901
993	5.37909	3.1678639	79.2915	78.8408	7.139444	32.53384
994	5.37739	3.1680871	79.4682	79.0164	7.139544	32.53794
995	5.37569	3.1682978	79.6388	79.1861	7.139650	32.54190
996	5.37454	3.1684776	79.8124	79.3586	7.139703	32.54498
997	5.37339	3.1685706	80.0011	79.5462	7.139803	32.54706
998	5.37254	3.1686636	80.1808	79.7249	7.139865	32.54885
999	5.37189	3.1687814	80.3667	79.9097	7.139889	32.55073
1000	5.37119	3.1687815	80.5372	80.0792	7.139981	32.55133
1001	5.37094	3.1688435	80.7322	80.2730	7.139984	32.55218
1002	5.37049	3.1688684	80.9027	80.4425	7.140031	32.55281
1003	5.37029	3.1688994	81.0825	80.6212	7.140044	32.55327
1004	5.37004	3.1689181	81.2622	80.7999	7.140070	32.55364
1005	5.36995	3.1689615	81.4480	80.9845	7.140064	32.55414
1006	5.36965	3.1689616	81.6277	81.1632	7.140106	32.55434
1007	5.36965	3.1689306	81.8042	81.3387	7.140126	32.55390
1008	5.36965	3.1689617	81.9902	81.5235	7.140114	32.55416
1009	5.36965	3.1689927	82.1728	81.7051	7.140102	32.55442
1010	5.36935	3.1690485	82.3647	81.8959	7.140114	32.55526
1011	5.36935	3.1690238	82.5384	82.0685	7.140132	32.55489
1012	5.36915	3.1690549	82.7180	82.2471	7.140144	32.55535
1013	5.36905	3.1690797	82.9068	82.4347	7.140148	32.55563
1014	5.36905	3.1690798	83.1018	82.6286	7.140153	32.55554
1015	5.36910	3.1690798	83.2755	82.8013	7.140150	32.55540
1016	5.36905	3.1691109	83.4611	82.9859	7.140145	32.55571
1017	5.36905	3.1691109	83.6532	83.1768	7.140149	32.55562
1018	5.36900	3.1691729	83.8481	83.3705	7.140127	32.55628
1019	5.36885	3.1692350	84.0339	83.5552	7.140117	32.55703
1020	5.36870	3.1693218	84.2256	83.7458	7.140094	32.55807
1021	5.36845	3.1694148	84.4146	83.9336	7.140080	32.55928
1022	5.36810	3.1694955	84.6216	84.1395	7.140086	32.56043
1023	5.36775	3.1696567	84.8258	84.3425	7.140049	32.56251
1024	5.36735	3.1697497	85.0114	84.5270	7.140054	32.56386
1025	5.36705	3.1697498	85.2002	84.7146	7.140096	32.56406
1026	5.36695	3.1698366	85.3829	84.8963	7.140067	32.56505
1027	5.36685	3.1698738	85.5628	85.0751	7.140064	32.56549
1028	5.36670	3.1698987	85.7487	85.2599	7.140074	32.56582
1029	5.36670	3.1698987	85.9313	85.4414	7.140078	32.56573
1030	5.36660	3.1698678	86.1231	85.6321	7.140112	32.56538
1031	5.36660	3.1699298	86.3059	85.8139	7.140083	32.56600
1032	5.36660	3.1699609	86.4978	86.0046	7.140071	32.56626
1033	5.36660	3.1700663	86.6896	86.1952	7.140019	32.56736
1034	5.36660	3.1700788	86.8755	86.3800	7.140017	32.56741
1035	5.36650	3.1699920	87.0643	86.5677	7.140080	32.56643
1036	5.36660	3.1699921	87.2499	86.7522	7.140072	32.56624
1037	5.36670	3.1700169	87.4420	86.9432	7.140050	32.56633
1038	5.36660	3.1699922	87.6247	87.1248	7.140080	32.56605
1039	5.36660	3.1700976	87.8348	87.3337	7.140029	32.56715
1040	5.36660	3.1702031	88.0207	87.5184	7.139977	32.56826
1041	5.36630	3.1704449	88.1943	87.6911	7.139890	32.57121
1042	5.36610	3.1705007	88.3770	87.8727	7.139889	32.57195
1043	5.36600	3.1705317	88.5690	88.0635	7.139890	32.57231
1044	5.36575	3.1708665	88.7609	88.2543	7.139747	32.57626
1045	5.36540	3.1712757	88.9647	88.4569	7.139578	32.58116
1046	5.36480	3.1717097	89.1567	88.6478	7.139426	32.58658
1047	5.36415	3.1725281	89.3516	88.8416	7.139076	32.59643
1048	5.36335	3.1746426	89.5557	89.0444	7.138053	32.62117
1049	5.36175	3.1754924	89.7536	89.2412	7.137806	32.63230
1050	5.36000	3.1764290	89.9487	89.4350	7.137531	32.64457
1051	5.35815	3.1767703	90.1497	89.6349	7.137587	32.65015
1052	5.35660	3.1770371	90.3505	89.8345	7.137644	32.65460
1053	5.35525	3.1771550	90.5607	90.0434	7.137756	32.65715
1054	5.35425	3.1772481	90.7679	90.2494	7.137837	32.65908
1055	5.35316	3.1773102	90.9596	90.4400	7.137947	32.66076
1056	5.35236	3.1774592	91.1699	90.6491	7.137974	32.66313
1057	5.35126	3.1775771	91.3679	90.8458	7.138054	32.66545
1058	5.35026	3.1776330	91.5720	91.0487	7.138155	32.66696
1059	5.34946	3.1777014	91.7699	91.2454	7.138224	32.66842
1060	5.34856	3.1777635	91.9861	91.4604	7.138309	32.66989
1061	5.34731	3.1778194	92.1900	91.6631	7.138441	32.67164
1062	5.34596	3.1778815	92.3943	91.8661	7.138583	32.67356
1063	5.34511	3.1778816	92.6104	92.0810	7.138695	32.67429
1064	5.34466	3.1778878	92.8236	92.2929	7.138753	32.67469
1065	5.34426	3.1779127	93.0369	92.5049	7.138795	32.67526
1066	5.34421	3.1779128	93.2591	92.7258	7.138807	32.67520
1067	5.34411	3.1779439	93.4753	92.9407	7.138808	32.67554
1068	5.34401	3.1779750	93.6853	93.1495	7.138809	32.67589
1069	5.34396	3.1779750	93.9049	93.3677	7.138820	32.67583
1070	5.34381	3.1779751	94.1118	93.5735	7.138844	32.67587
1071	5.34396	3.1780186	94.3250	93.7853	7.138806	32.67611
1072	5.34406	3.1780373	94.5291	93.9883	7.138789	32.67613
1073	5.34391	3.1780373	94.7394	94.1973	7.138812	32.67617
1074	5.34391	3.1780684	94.9587	94.4153	7.138801	32.67642
1075	5.34381	3.1781864	95.1719	94.6272	7.138756	32.67775
1076	5.34406	3.1782795	95.3910	94.8451	7.138679	32.67846
1077	5.34411	3.1783106	95.6073	95.0600	7.138662	32.67866
1078	5.34421	3.1782734	95.8327	95.2841	7.138674	32.67802
1079	5.34416	3.1782487	96.0459	95.4960	7.138699	32.67768
1080	5.34421	3.1783108	96.2681	95.7170	7.138664	32.67823
1081	5.34411	3.1783357	96.4846	95.9321	7.138669	32.67851
1082	5.34411	3.1783109	96.6978	96.1440	7.138687	32.67812
1083	5.34396	3.1783358	96.9353	96.3801	7.138698	32.67843
1084	5.34381	3.1783359	97.1485	96.5920	7.138722	32.67847
1085	5.34381	3.1783111	97.3734	96.8156	7.138740	32.67808
1086	5.34361	3.1783980	97.5960	97.0369	7.138724	32.67915
1087	5.34361	3.1784601	97.8182	97.2577	7.138696	32.67975
1088	5.34361	3.1785781	98.0375	97.4758	7.138638	32.68098
1089	5.34356	3.1787023	98.2600	97.6970	7.138583	32.68233
1090	5.34361	3.1786403	98.4822	97.9178	7.138615	32.68147
1091	5.34366	3.1785907	98.7076	98.1419	7.138641	32.68074
1092	5.34391	3.1785784	98.9390	98.3719	7.138621	32.68024
1093	5.34406	3.1787956	99.1674	98.5989	7.138492	32.68246
1094	5.34411	3.1790066	99.3960	98.8261	7.138378	32.68470
1095	5.34416	3.1788826	99.6181	99.0470	7.138443	32.68313
1096	5.34411	3.1789757	99.8406	99.2681	7.138405	32.68413
1097	5.34416	3.1791247	100.0628	99.4890	7.138324	32.68566
1098	5.34421	3.1793606	100.2761	99.7010	7.138197	32.68819
1099	5.34441	3.1796088	100.4922	99.9158	7.138044	32.69072
1100	5.34426	3.1798819	100.7237	100.1459	7.137923	32.69386
1101	5.34396	3.1800371	100.9491	100.3700	7.137883	32.69581
1102	5.34361	3.1802172	101.1745	100.5940	7.137836	32.69809
1103	5.34281	3.1803103	101.3968	100.8150	7.137892	32.69982
1104	5.34167	3.1804594	101.6342	101.0509	7.137963	32.70252
1105	5.33957	3.1804781	101.8751	101.2904	7.138223	32.70466
1106	5.33802	3.1805526	102.0972	101.5112	7.138383	32.70691
1107	5.33692	3.1805527	102.3285	101.7411	7.138527	32.70787
1108	5.33612	3.1805838	102.5631	101.9743	7.138617	32.70888
1109	5.33577	3.1805529	102.8219	102.2316	7.138683	32.70874
1110	5.33552	3.1805840	103.0718	102.4800	7.138704	32.70922
1111	5.33547	3.1806399	103.3062	102.7129	7.138686	32.70979
1112	5.33517	3.1806710	103.5346	102.9400	7.138712	32.71032
1113	5.33497	3.1806401	103.7692	103.1732	7.138760	32.71004
1114	5.33482	3.1807332	104.0037	103.4063	7.138734	32.71114
1115	5.33432	3.1808574	104.2350	103.6362	7.138736	32.71292
1116	5.33343	3.1809133	104.4697	103.8695	7.138825	32.71432
1117	5.33238	3.1809445	104.6858	104.0843	7.138946	32.71559
1118	5.33163	3.1809942	104.9265	104.3235	7.139019	32.71677
1119	5.33103	3.1810687	105.1515	104.5472	7.139060	32.71809
1120	5.33008	3.1810998	105.3833	104.7776	7.139168	32.71926
1121	5.32928	3.1810689	105.6207	105.0136	7.139291	32.71957
1122	5.32838	3.1810690	105.8584	105.2498	7.139410	32.72033
1123	5.32713	3.1810380	106.0958	105.4858	7.139590	32.72107
1124	5.32599	3.1810071	106.3302	105.7189	7.139756	32.72173
1125	5.32484	3.1810258	106.5709	105.9581	7.139897	32.72294
1126	5.32409	3.1810383	106.8083	106.1941	7.139990	32.72370
1127	5.32374	3.1810073	107.0490	106.4333	7.140056	32.72357
1128	5.32319	3.1810384	107.2835	106.6664	7.140114	32.72434
1129	5.32249	3.1810075	107.5210	106.9024	7.140225	32.72455
1130	5.32159	3.1810076	107.7585	107.1385	7.140343	32.72531
1131	5.32104	3.1810387	107.9902	107.3688	7.140401	32.72609
1132	5.32139	3.1810884	108.2397	107.6168	7.140337	32.72619
1133	5.32229	3.1810698	108.4681	107.8439	7.140239	32.72499
1134	5.32244	3.1810699	108.7118	108.0861	7.140225	32.72472
1135	5.32194	3.1810700	108.9494	108.3223	7.140294	32.72509
1136	5.32089	3.1810080	109.1869	108.5584	7.140465	32.72529
1137	5.31930	3.1810081	109.4303	108.8003	7.140672	32.72673
1138	5.31805	3.1810082	109.6710	109.0396	7.140835	32.72783
1139	5.31710	3.1809959	109.9176	109.2847	7.140967	32.72849
1140	5.31680	3.1810394	110.1614	109.5270	7.140987	32.72916
1141	5.31660	3.1810705	110.3929	109.7570	7.141001	32.72959
1142	5.31655	3.1810706	110.6364	109.9992	7.141013	32.72952
1143	5.31675	3.1810706	110.8863	110.2475	7.140993	32.72920
1144	5.31670	3.1811328	111.1297	110.4894	7.140972	32.72984
1145	5.31625	3.1811328	111.3704	110.7287	7.141034	32.73016
1146	5.31560	3.1811577	111.6077	110.9646	7.141108	32.73096
1147	5.31515	3.1811889	111.8456	111.2010	7.141154	32.73163
1148	5.31485	3.1812510	112.0892	111.4431	7.141164	32.73251
1149	5.31480	3.1812200	112.3358	111.6883	7.141193	32.73209
1150	5.31465	3.1812822	112.5795	111.9305	7.141184	32.73282
1151	5.31420	3.1812512	112.8261	112.1756	7.141263	32.73278
1152	5.31341	3.1812823	113.0757	112.4237	7.141353	32.73379
1153	5.31271	3.1812514	113.3621	112.7084	7.141464	32.73398
1154	5.31206	3.1812515	113.6148	112.9595	7.141552	32.73449
1155	5.31131	3.1812826	113.8493	113.1927	7.141635	32.73546
1156	5.31086	3.1812206	114.0959	113.4378	7.141731	32.73507
1157	5.31016	3.1812207	114.3425	113.6828	7.141825	32.73563
1158	5.30956	3.1811649	114.5770	113.9159	7.141936	32.73546
1159	5.30941	3.1811898	114.8147	114.1522	7.141947	32.73577
1160	5.30936	3.1811899	115.0521	114.3881	7.141958	32.73571
1161	5.30931	3.1812210	115.2930	114.6276	7.141954	32.73599
1162	5.30926	3.1811652	115.5393	114.8724	7.141996	32.73528
1163	5.30896	3.1812212	115.7860	115.1176	7.142009	32.73609
1164	5.30886	3.1812212	116.0237	115.3539	7.142027	32.73607
1165	5.30871	3.1812213	116.2733	115.6020	7.142052	32.73609
1166	5.30841	3.1812214	116.5200	115.8471	7.142095	32.73626
1167	5.30817	3.1812525	116.7667	116.0923	7.142116	32.73674
1168	5.30792	3.1812215	117.0042	116.3284	7.142170	32.73651
1169	5.30747	3.1809485	117.2479	116.5707	7.142378	32.73372
1170	5.30582	3.1808617	117.4946	116.8159	7.142638	32.73421
1171	5.30417	3.1809487	117.7351	117.0550	7.142805	32.73669
1172	5.30307	3.1804337	117.9729	117.2913	7.143225	32.73178
1173	5.30058	3.1804338	118.2132	117.5302	7.143545	32.73410
1174	5.29868	3.1804525	118.4598	117.7752	7.143780	32.73604
1175	5.29794	3.1805581	118.7065	118.0204	7.143824	32.73785
1176	5.29794	3.1805582	118.9563	118.2687	7.143829	32.73773
1177	5.29779	3.1801921	119.1998	118.5107	7.144050	32.73358
1178	5.29619	3.1801922	119.4465	118.7560	7.144257	32.73502
1179	5.29494	3.1802233	119.6963	119.0042	7.144404	32.73647
1180	5.29429	3.1802544	119.9369	119.2433	7.144475	32.73734
1181	5.29409	3.1802297	120.1926	119.4975	7.144519	32.73712
1182	5.29354	3.1799505	120.4362	119.7396	7.144743	32.73435
1183	5.29195	3.1797706	120.6828	119.9848	7.145047	32.73374
1184	5.29005	3.1797087	120.9296	120.2301	7.145325	32.73476
1185	5.28831	3.1797708	121.1792	120.4781	7.145518	32.73705
1186	5.28721	3.1801060	121.4230	120.7204	7.145483	32.74183
1187	5.28661	3.1805591	121.6664	120.9624	7.145321	32.74746
1188	5.28586	3.1808695	121.9072	121.2016	7.145255	32.75161
1189	5.28546	3.1811364	122.1600	121.4530	7.145169	32.75492
1190	5.28501	3.1812855	122.4036	121.6951	7.145151	32.75694
1191	5.28506	3.1813166	122.6472	121.9372	7.145134	32.75712
1192	5.28496	3.1815897	122.8849	122.1734	7.145006	32.76022
1193	5.28491	3.1816519	123.1283	122.4153	7.144984	32.76085
1194	5.28511	3.1820430	123.3811	122.6666	7.144756	32.76499
1195	5.28551	3.1822479	123.6370	122.9209	7.144601	32.76681
1196	5.28626	3.1823473	123.9140	123.1962	7.144460	32.76708
1197	5.28676	3.1825584	124.1790	123.4597	7.144290	32.76886
1198	5.28741	3.1836200	124.4348	123.7140	7.143646	32.78021
1199	5.28801	3.1841975	124.6813	123.9589	7.143267	32.78609
1200	5.28856	3.1841355	124.9282	124.2043	7.143237	32.78472
1201	5.28891	3.1846260	125.1838	124.4583	7.142936	32.78985
1202	5.28915	3.1848745	125.4276	124.7006	7.142777	32.79232
1203	5.28970	3.1849242	125.6618	124.9334	7.142687	32.79223
1204	5.29005	3.1851975	125.9087	125.1788	7.142502	32.79488
1205	5.29025	3.1872655	126.1584	125.4270	7.141376	32.81815
1206	5.29115	3.1878743	126.4050	125.6721	7.140942	32.82409
1207	5.29200	3.1880855	126.6577	125.9232	7.140728	32.82555
1208	5.29260	3.1879924	126.9105	126.1745	7.140709	32.82377
1209	5.29300	3.1887255	127.1571	126.4196	7.140272	32.83162
1210	5.29330	3.1890734	127.3977	126.6587	7.140053	32.83517
1211	5.29349	3.1891170	127.6446	126.9041	7.140011	32.83535
1212	5.29384	3.1892724	127.8941	127.1521	7.139889	32.83666
1213	5.29419	3.1905150	128.1410	127.3975	7.139186	32.85037
1214	5.29464	3.1907326	128.3936	127.6485	7.139019	32.85228
1215	5.29519	3.1919195	128.6371	127.8905	7.138320	32.86516
1216	5.29599	3.1932868	128.8930	128.1449	7.137494	32.87985
1217	5.29714	3.1938960	129.1397	128.3901	7.137029	32.88555
1218	5.29799	3.1934672	129.3771	128.6261	7.137157	32.87971
1219	5.29828	3.1938962	129.6239	128.8713	7.136896	32.88418
1220	5.29863	3.1934984	129.8675	129.1134	7.137071	32.87918
1221	5.29873	3.1956307	130.1234	129.3678	7.135923	32.90328
1222	5.29953	3.1969738	130.3699	129.6127	7.135110	32.91769
1223	5.30073	3.2015516	130.6228	129.8641	7.132516	32.96862
1224	5.30317	3.2078191	130.8726	130.1124	7.128863	33.03761
1225	5.30682	3.2111820	131.1221	130.3604	7.126615	33.07227
1226	5.30951	3.2123157	131.3657	130.6024	7.125677	33.08243
1227	5.31046	3.2130571	131.6154	130.8507	7.125168	33.08983
1228	5.31036	3.2132690	131.8590	131.0928	7.125073	33.09223
1229	5.30981	3.2133314	132.1028	131.3350	7.125114	33.09336
1230	5.30956	3.2136991	132.3495	131.5802	7.124954	33.09768
1231	5.30936	3.2139920	132.5870	131.8162	7.124828	33.10110
1232	5.30891	3.2146775	132.8459	132.0735	7.124524	33.10924
1233	5.30831	3.2147710	133.0955	132.3217	7.124555	33.11077
1234	5.30802	3.2148334	133.3482	132.5728	7.124565	33.11165
1235	5.30767	3.2155688	133.6010	132.8240	7.124222	33.12027
1236	5.30657	3.2161236	133.8507	133.0722	7.124068	33.12756
1237	5.30472	3.2163044	134.0972	133.3173	7.124209	33.13132
1238	5.30352	3.2162734	134.3440	133.5625	7.124381	33.13203
1239	5.30283	3.2163669	134.6151	133.8319	7.124425	33.13365
1240	5.30248	3.2164293	134.8951	134.1102	7.124442	33.13457
1241	5.30228	3.2167348	135.1510	134.3645	7.124309	33.13813
1242	5.30158	3.2173208	135.3976	134.6096	7.124089	33.14539
1243	5.30073	3.2178757	135.6565	134.8669	7.123905	33.15243
1244	5.29958	3.2180254	135.9121	135.1210	7.123974	33.15515
1245	5.29833	3.2184244	136.1651	135.3724	7.123923	33.16081
1246	5.29704	3.2185180	136.4025	135.6084	7.124041	33.16305
1247	5.29594	3.2184870	136.6493	135.8537	7.124201	33.16365
1248	5.29539	3.2186117	136.9019	136.1046	7.124208	33.16549
1249	5.29489	3.2187552	137.1517	136.3529	7.124200	33.16750
1250	5.29409	3.2187615	137.4074	136.6070	7.124303	33.16823
1251	5.29325	3.2187616	137.6601	136.8582	7.124415	33.16895
1252	5.29280	3.2188864	137.9099	137.1065	7.124410	33.17069
1253	5.29235	3.2188864	138.1537	137.3488	7.124472	33.17102
1254	5.29200	3.2189489	138.4094	137.6028	7.124488	33.17195
1255	5.29185	3.2191360	138.6558	137.8478	7.124412	33.17411
1256	5.29155	3.2202397	138.9058	138.0963	7.123865	33.18688
1257	5.29085	3.2202709	139.1644	138.3533	7.123942	33.18780
1258	5.29050	3.2206701	139.4051	138.5924	7.123778	33.19259
1259	5.29000	3.2212875	139.6641	138.8498	7.123516	33.20001
1260	5.28955	3.2210693	139.9075	139.0918	7.123695	33.19784
1261	5.28920	3.2212877	140.1635	139.3462	7.123628	33.20055
1262	5.28930	3.2213751	140.4160	139.5971	7.123574	33.20132
1263	5.28915	3.2215311	140.6625	139.8421	7.123516	33.20313
1264	5.28920	3.2216247	140.9094	140.0874	7.123465	33.20402
1265	5.28930	3.2216248	141.1713	140.3477	7.123459	33.20379
1266	5.28940	3.2222360	141.4181	140.5930	7.123125	33.21055
1267	5.28960	3.2223608	141.6768	140.8501	7.123039	33.21165
1268	5.28975	3.2223921	141.9296	141.1014	7.123010	33.21173
1269	5.28990	3.2224545	142.1821	141.3524	7.122964	33.21217
1270	5.28995	3.2227166	142.4409	141.6096	7.122824	33.21498
1271	5.29010	3.2229163	142.6998	141.8668	7.122704	33.21699
1272	5.29055	3.2228540	142.9467	142.1122	7.122687	33.21570
1273	5.29085	3.2232220	143.1962	142.3602	7.122459	33.21949
1274	5.29140	3.2231909	143.4462	142.6086	7.122413	33.21846
1275	5.29185	3.2234093	143.7018	142.8626	7.122246	33.22038
1276	5.29170	3.2234406	143.9605	143.1197	7.122254	33.22076
1277	5.29150	3.2234095	144.2196	143.3772	7.122302	33.22047
1278	5.29145	3.2234096	144.4781	143.6341	7.122314	33.22039
1279	5.29145	3.2235344	144.7279	143.8824	7.122253	33.22169
1280	5.29115	3.2235345	144.9807	144.1336	7.122296	33.22186
1281	5.29075	3.2235657	145.2336	144.3849	7.122335	33.22249
1282	5.29005	3.2235908	145.5015	144.6512	7.122416	33.22333
1283	5.28940	3.2235909	145.7695	144.9175	7.122503	33.22384
1284	5.28886	3.2236222	146.0467	145.1930	7.122561	33.22460
1285	5.28866	3.2236846	146.2932	145.4380	7.122559	33.22539
1286	5.28856	3.2239030	146.5427	145.6859	7.122460	33.22786
1287	5.28851	3.2242400	146.7957	145.9374	7.122292	33.23163
1288	5.28915	3.2244272	147.0454	146.1855	7.122117	33.23300
1289	5.28990	3.2243961	147.2981	146.4366	7.122046	33.23178
1290	5.29040	3.2245147	147.5539	146.6909	7.121926	33.23251
1291	5.29070	3.2245459	147.8158	146.9511	7.121878	33.23244
1292	5.29090	3.2245772	148.0776	147.2113	7.121843	33.23246
1293	5.29120	3.2246085	148.3304	147.4626	7.121795	33.23240
1294	5.29125	3.2247957	148.5800	147.7106	7.121694	33.23436
1295	5.29185	3.2248582	148.8388	147.9678	7.121592	33.23435
1296	5.29245	3.2248271	149.0855	148.2130	7.121540	33.23328
1297	5.29280	3.2249519	149.3442	148.4701	7.121435	33.23423
1298	5.29305	3.2248896	149.6003	148.7245	7.121443	33.23314
1299	5.29305	3.2248897	149.8531	148.9758	7.121449	33.23301
1300	5.29310	3.2248898	150.1150	149.2361	7.121449	33.23283
1301	5.29310	3.2249834	150.3675	149.4870	7.121405	33.23377
1302	5.29320	3.2248275	150.6174	149.7353	7.121482	33.23177
1303	5.29295	3.2247340	150.8670	149.9833	7.121569	33.23082
1304	5.29260	3.2246093	151.1257	150.2404	7.121685	33.22961
1305	5.29180	3.2246094	151.3723	150.4855	7.121791	33.23028
1306	5.29120	3.2247031	151.6190	150.7307	7.121821	33.23182
1307	5.29110	3.2247967	151.8657	150.9759	7.121790	33.23287
1308	5.29130	3.2249840	152.1122	151.2208	7.121670	33.23468
1309	5.29195	3.2250402	152.3743	151.4813	7.121565	33.23455
1310	5.29260	3.2249529	152.6302	151.7356	7.121537	33.23278
1311	5.29255	3.2249842	152.8796	151.9835	7.121532	33.23306
1312	5.29230	3.2249531	153.1416	152.2438	7.121586	33.23282
1313	5.29215	3.2248908	153.3975	152.4981	7.121644	33.23213
1314	5.29175	3.2249221	153.6595	152.7585	7.121684	33.23275
1315	5.29145	3.2249221	153.9091	153.0066	7.121727	33.23293
1316	5.29135	3.2249846	154.1589	153.2548	7.121712	33.23361
1317	5.29145	3.2249847	154.4146	153.5088	7.121705	33.23339
1318	5.29135	3.2249848	154.6704	153.7631	7.121724	33.23336
1319	5.29130	3.2249537	154.9171	154.0083	7.121753	33.23293
1320	5.29100	3.2249849	155.1698	154.2594	7.121779	33.23345
1321	5.29065	3.2249850	155.4224	154.5104	7.121829	33.23368
1322	5.29005	3.2251972	155.6661	154.7526	7.121796	33.23657
1323	5.28935	3.2255030	155.9282	155.0130	7.121726	33.24062
1324	5.28891	3.2255094	156.1867	155.2699	7.121785	33.24101
1325	5.28881	3.2255344	156.4306	155.5123	7.121789	33.24127
1326	5.28856	3.2255969	156.6892	155.7693	7.121793	33.24211
1327	5.28846	3.2255658	156.9725	156.0508	7.121829	33.24171
1328	5.28856	3.2252913	157.2373	156.3140	7.121970	33.23834
1329	5.28861	3.2252914	157.4872	156.5623	7.121969	33.23817
1330	5.28846	3.2252915	157.7369	156.8105	7.121994	33.23819
1331	5.28861	3.2252603	157.9804	157.0524	7.121997	33.23756
1332	5.28861	3.2252916	158.2360	157.3064	7.121987	33.23779
1333	5.28871	3.2252605	158.4920	157.5608	7.121997	33.23721
1334	5.28881	3.2254166	158.7416	157.8089	7.121907	33.23877
1335	5.28881	3.2254478	158.9944	158.0601	7.121896	33.23900
1336	5.28871	3.2254167	159.2563	158.3203	7.121931	33.23861
1337	5.28881	3.2255353	159.5058	158.5683	7.121861	33.23974
1338	5.28891	3.2256290	159.7646	158.8255	7.121805	33.24058
1339	5.28891	3.2257227	160.0175	159.0767	7.121761	33.24152
1340	5.28881	3.2259973	160.2581	159.3158	7.121632	33.24464
1341	5.28876	3.2263406	160.5107	159.5669	7.121461	33.24848
1342	5.28876	3.2263094	160.7634	159.8180	7.121483	33.24800
1343	5.28866	3.2264593	161.0222	160.0752	7.121422	33.24968
1344	5.28876	3.2265218	161.2720	160.3234	7.121382	33.25017
1345	5.28871	3.2265530	161.5248	160.5746	7.121377	33.25045
1346	5.28866	3.2266779	161.7683	160.8166	7.121322	33.25180
1347	5.28876	3.2267404	162.0213	161.0680	7.121282	33.25229
1348	5.28866	3.2268341	162.2740	161.3191	7.121251	33.25333
1349	5.28861	3.2268341	162.5235	161.5670	7.121263	33.25326
1350	5.28871	3.2268966	162.7765	161.8184	7.121223	33.25374
1351	5.28876	3.2269529	163.0228	162.0632	7.121192	33.25421
1352	5.28871	3.2269217	163.2756	162.3145	7.121221	33.25378
1353	5.28871	3.2269530	163.5132	162.5506	7.121210	33.25402
1354	5.28866	3.2270779	163.7569	162.7927	7.121155	33.25537
1355	5.28861	3.2272402	164.0003	163.0346	7.121080	33.25715
1356	5.28871	3.2272029	164.2472	163.2799	7.121094	33.25650
1357	5.28861	3.2272966	164.4969	163.5280	7.121062	33.25755
1358	5.28871	3.2273590	164.7556	163.7851	7.121022	33.25803
1359	5.28871	3.2274153	165.0082	164.0362	7.120998	33.25855
1360	5.28871	3.2274466	165.2550	164.2814	7.120987	33.25878
1361	5.28871	3.2277587	165.5018	164.5266	7.120826	33.26222
1362	5.28866	3.2278524	165.7726	164.7958	7.120788	33.26321
1363	5.28861	3.2279711	166.0682	165.0894	7.120738	33.26446
1364	5.28861	3.2281272	166.3697	165.3890	7.120662	33.26609
1365	5.28866	3.2281585	166.6434	165.6610	7.120645	33.26626
1366	5.28861	3.2282210	166.8929	165.9090	7.120624	33.26690
1367	5.28866	3.2282522	167.1429	166.1574	7.120607	33.26708
1368	5.28871	3.2283771	167.3956	166.4085	7.120540	33.26834
1369	5.28861	3.2285582	167.6329	166.6443	7.120461	33.27038
1370	5.28861	3.2285895	167.8830	166.8929	7.120450	33.27062
1371	5.28856	3.2286520	168.1539	167.1620	7.120429	33.27124
1372	5.28856	3.2286209	168.4340	167.4404	7.120453	33.27075
1373	5.28856	3.2286522	168.6896	167.6943	7.120442	33.27097
1374	5.28846	3.2286835	168.9365	167.9397	7.120443	33.27131
1375	5.28861	3.2287147	169.1800	168.1816	7.120414	33.27139
1376	5.28856	3.2287772	169.4298	168.4299	7.120392	33.27203
1377	5.28856	3.2288397	169.6827	168.6812	7.120365	33.27262
1378	5.28871	3.2289272	169.9259	168.9229	7.120305	33.27335
1379	5.28866	3.2289585	170.1816	169.1770	7.120301	33.27362
1380	5.28871	3.2290522	170.4376	169.4313	7.120250	33.27452
1381	5.28856	3.2291147	170.6995	169.6916	7.120242	33.27525
1382	5.28871	3.2291460	170.9613	169.9517	7.120213	33.27533
1383	5.28876	3.2291461	171.2078	170.1966	7.120212	33.27515
1384	5.28871	3.2294208	171.4516	170.4389	7.120077	33.27822
1385	5.28876	3.2296393	171.7011	170.6869	7.119960	33.28054
1386	5.28881	3.2296394	171.9602	170.9443	7.119960	33.28036
1387	5.28886	3.2296707	172.1977	171.1803	7.119943	33.28055
1388	5.28886	3.2297020	172.4413	171.4224	7.119932	33.28078
1389	5.28896	3.2299767	172.6878	171.6674	7.119778	33.28370
1390	5.28891	3.2302890	172.9314	171.9094	7.119623	33.28719
1391	5.28891	3.2303515	173.1722	172.1486	7.119595	33.28779
1392	5.28905	3.2303328	173.4339	172.4087	7.119593	33.28729
1393	5.28905	3.2304390	173.6775	172.6508	7.119542	33.28838
1394	5.28910	3.2305327	173.9211	172.8928	7.119491	33.28928
1395	5.28915	3.2305640	174.1614	173.1316	7.119474	33.28947
1396	5.28910	3.2306890	174.4052	173.3739	7.119419	33.29082
1397	5.28910	3.2307515	174.6581	173.6252	7.119391	33.29141
1398	5.28910	3.2308140	174.9017	173.8672	7.119364	33.29200
1399	5.28925	3.2307516	175.1575	174.1214	7.119384	33.29101
1400	5.28935	3.2308141	175.4009	174.3632	7.119344	33.29151
1401	5.28930	3.2308766	175.6688	174.6294	7.119323	33.29213
1402	5.28930	3.2309641	175.9187	174.8777	7.119283	33.29301
1403	5.28940	3.2311203	176.1743	175.1318	7.119193	33.29456
1404	5.28925	3.2312452	176.4271	175.3830	7.119150	33.29601
1405	5.28940	3.2312765	176.6768	175.6311	7.119121	33.29610
1406	5.28940	3.2312766	176.9234	175.8761	7.119127	33.29597
1407	5.28950	3.2312767	177.1669	176.1181	7.119120	33.29575
1408	5.28965	3.2312768	177.4197	176.3693	7.119107	33.29548
1409	5.28960	3.2313393	177.6692	176.6172	7.119086	33.29612
1410	5.28965	3.2314018	177.9068	176.8532	7.119052	33.29666
1411	5.28980	3.2315205	178.1596	177.1045	7.118976	33.29774
1412	5.28965	3.2315518	178.4094	177.3526	7.118983	33.29812
1413	5.28970	3.2316455	178.6592	177.6008	7.118933	33.29902
1414	5.28965	3.2317080	178.9118	177.8518	7.118912	33.29965
1415	5.28970	3.2317081	179.1705	178.1089	7.118912	33.29948
1416	5.28965	3.2317394	179.4507	178.3873	7.118908	33.29974
1417	5.28975	3.2318332	179.7308	178.6657	7.118852	33.30057
1418	5.28960	3.2318333	179.9896	178.9228	7.118876	33.30059
1419	5.28975	3.2318333	180.2485	179.1801	7.118864	33.30031
1420	5.28970	3.2319895	180.4951	179.4251	7.118792	33.30202
1421	5.28975	3.2319584	180.7447	179.6731	7.118809	33.30149
1422	5.28970	3.2320209	180.9885	179.9154	7.118787	33.30213
1423	5.28970	3.2321084	181.2381	180.1633	7.118746	33.30301
1424	5.28985	3.2323582	181.4847	180.4084	7.118600	33.30559
1425	5.28985	3.2324520	181.7346	180.6567	7.118556	33.30654
1426	5.29000	3.2324833	182.0056	180.9259	7.118527	33.30661
1427	5.29005	3.2325458	182.2522	181.1710	7.118493	33.30715
1428	5.29010	3.2326333	182.5140	181.4312	7.118446	33.30797
1429	5.29030	3.2326646	182.7605	181.6760	7.118410	33.30800
1430	5.29030	3.2326959	183.0103	181.9243	7.118399	33.30823
1431	5.29025	3.2326648	183.2539	182.1663	7.118428	33.30781
1432	5.29035	3.2327273	183.5097	182.4205	7.118388	33.30829
1433	5.29040	3.2326961	183.7533	182.6625	7.118404	33.30776
1434	5.29040	3.2327587	183.9876	182.8954	7.118376	33.30836
1435	5.29050	3.2330710	184.2375	183.1436	7.118203	33.31170
1436	5.29075	3.2332521	184.4809	183.3855	7.118080	33.31340
1437	5.29115	3.2333147	184.7248	183.6278	7.118003	33.31360
1438	5.29145	3.2333460	184.9713	183.8728	7.117955	33.31353
1439	5.29150	3.2334710	185.2269	184.1267	7.117888	33.31478
1440	5.29140	3.2335335	185.4857	184.3838	7.117873	33.31547
1441	5.29155	3.2335648	185.7417	184.6383	7.117843	33.31555
1442	5.29165	3.2335961	185.9943	184.8893	7.117820	33.31568
1443	5.29170	3.2335649	186.2438	185.1371	7.117836	33.31515
1444	5.29185	3.2336837	186.4966	185.3883	7.117760	33.31623
1445	5.29185	3.2336275	186.7495	185.6396	7.117796	33.31546
1446	5.29185	3.2335964	187.0085	185.8969	7.117819	33.31497
1447	5.29180	3.2338713	187.2518	186.1387	7.117684	33.31804
1448	5.29190	3.2340275	187.5016	186.3869	7.117594	33.31960
1449	5.29205	3.2341525	187.7572	186.6408	7.117514	33.32075
1450	5.29235	3.2342712	188.0070	186.8891	7.117420	33.32168
1451	5.29230	3.2343962	188.2567	187.1372	7.117365	33.32304
1452	5.29250	3.2344588	188.5124	187.3912	7.117313	33.32342
1453	5.29255	3.2348274	188.7561	187.6333	7.117115	33.32746
1454	5.29280	3.2360955	189.0147	187.8903	7.116412	33.34157
1455	5.29315	3.2360643	189.2645	188.1385	7.116391	33.34074
1456	5.29344	3.2363143	189.5294	188.4017	7.116227	33.34317
1457	5.29369	3.2363456	189.7852	188.6559	7.116185	33.34315
1458	5.29374	3.2362520	190.0470	188.9160	7.116235	33.34190
1459	5.29379	3.2362521	190.3151	189.1824	7.116235	33.34171
1460	5.29384	3.2362209	190.5980	189.4635	7.116252	33.34116
1461	5.29384	3.2363147	190.8691	189.7328	7.116208	33.34210
1462	5.29394	3.2364085	191.1250	189.9871	7.116152	33.34294
1463	5.29394	3.2363774	191.3838	190.2442	7.116174	33.34246
1464	5.29404	3.2364712	191.6514	190.5101	7.116118	33.34329
1465	5.29404	3.2365899	191.9104	190.7675	7.116061	33.34452
1466	5.29404	3.2366837	192.1723	191.0276	7.116017	33.34546
1467	5.29419	3.2367463	192.4343	191.2880	7.115971	33.34590
1468	5.29414	3.2367464	192.6989	191.5509	7.115983	33.34581
1469	5.29419	3.2369026	192.9639	191.8142	7.115900	33.34741
1470	5.29419	3.2369027	193.2257	192.0743	7.115906	33.34728
1471	5.29434	3.2368403	193.4847	192.3317	7.115927	33.34629
1472	5.29429	3.2370591	193.7404	192.5857	7.115822	33.34871
1473	5.29439	3.2372091	194.0051	192.8487	7.115736	33.35019
1474	5.29454	3.2373966	194.2641	193.1060	7.115623	33.35206
1475	5.29439	3.2376154	194.5319	193.3721	7.115531	33.35457
1476	5.29464	3.2376780	194.8062	193.6446	7.115473	33.35490
1477	5.29479	3.2377093	195.0738	193.9105	7.115444	33.35497
1478	5.29494	3.2376781	195.3450	194.1799	7.115448	33.35433
1479	5.29489	3.2375533	195.6190	194.4522	7.115528	33.35282
1480	5.29494	3.2374596	195.8963	194.7277	7.115578	33.35156
1481	5.29509	3.2374909	196.1581	194.9879	7.115549	33.35164
1482	5.29514	3.2375847	196.4289	195.2569	7.115499	33.35252
1483	5.29519	3.2376161	196.7026	195.5288	7.115482	33.35269
1484	5.29514	3.2377099	196.9737	195.7982	7.115445	33.35368
1485	5.29524	3.2380786	197.2357	196.0585	7.115241	33.35766
1486	5.29539	3.2382349	197.5067	196.3278	7.115146	33.35916
1487	5.29544	3.2382975	197.7747	196.5941	7.115112	33.35969
1488	5.29569	3.2385413	198.0425	196.8601	7.114957	33.36209
1489	5.29584	3.2385101	198.3015	197.1174	7.114961	33.36145
1490	5.29604	3.2382977	198.5755	197.3897	7.115056	33.35869
1491	5.29599	3.2382353	198.8493	197.6617	7.115102	33.35789
1492	5.29589	3.2383854	199.1173	197.9280	7.115041	33.35957
1493	5.29594	3.2385417	199.3793	198.1883	7.114957	33.36117
1494	5.29594	3.2387292	199.6441	198.4514	7.114863	33.36318
1495	5.29624	3.2387918	199.9182	198.7237	7.114799	33.36346
1496	5.29629	3.2388856	200.1829	198.9867	7.114749	33.36435
1497	5.29644	3.2389795	200.4478	199.2499	7.114687	33.36514
1498	5.29634	3.2390045	200.7189	199.5192	7.114692	33.36539
1499	5.29654	3.2390984	200.9871	199.7857	7.114623	33.36613
1500	5.29644	3.2391922	201.2578	200.0546	7.114592	33.36716
1501	5.29674	3.2393485	201.5287	200.3238	7.114478	33.36851
1502	5.29689	3.2394423	201.8091	200.6024	7.114415	33.36930
1503	5.29689	3.2395049	202.1103	200.9016	7.114389	33.36986
1504	5.29699	3.2395363	202.3965	201.1860	7.114367	33.36997
1505	5.29704	3.2395363	202.6644	201.4522	7.114367	33.36979
1506	5.29704	3.2395989	202.9417	201.7277	7.114340	33.37037
1507	5.29719	3.2396553	203.1971	201.9814	7.114297	33.37073
1508	5.29729	3.2399053	203.4713	202.2538	7.114157	33.37335
1509	5.29754	3.2399367	203.7393	202.5201	7.114116	33.37333
1510	5.29769	3.2399680	204.0041	202.7832	7.114087	33.37340
1511	5.29774	3.2400306	204.2661	203.0435	7.114053	33.37394
1512	5.29789	3.2400307	204.5246	203.3003	7.114041	33.37366
1513	5.29794	3.2400932	204.7928	203.5668	7.114007	33.37419
1514	5.29799	3.2401558	205.0577	203.8299	7.113974	33.37472
1515	5.29794	3.2401559	205.3195	204.0901	7.113986	33.37464
1516	5.29809	3.2402747	205.5784	204.3473	7.113910	33.37572
1517	5.29799	3.2406498	205.8398	204.6070	7.113728	33.37997
1518	5.29818	3.2406812	206.1082	204.8737	7.113693	33.37999
1519	5.29818	3.2411751	206.3546	205.1185	7.113435	33.38551
1520	5.29848	3.2408063	206.6194	205.3815	7.113601	33.38087
1521	5.29858	3.2416378	206.8968	205.6571	7.113151	33.39013
1522	5.29898	3.2425069	207.1554	205.9140	7.112643	33.39953
1523	5.29958	3.2426632	207.4203	206.1772	7.112492	33.40058
1524	5.30013	3.2426633	207.6882	206.4434	7.112429	33.39990
1525	5.30033	3.2426321	207.9440	206.6975	7.112427	33.39922
1526	5.30048	3.2426322	208.2087	206.9606	7.112415	33.39894
1527	5.30048	3.2426635	208.4644	207.2146	7.112404	33.39917
1528	5.30053	3.2426324	208.7204	207.4689	7.112421	33.39863
1529	5.30058	3.2426637	208.9791	207.7259	7.112404	33.39881
1530	5.30063	3.2426950	209.2319	207.9771	7.112387	33.39899
1531	5.30068	3.2426639	209.4844	208.2279	7.112403	33.39846
1532	5.30078	3.2426014	209.7370	208.4789	7.112430	33.39752
1533	5.30068	3.2426328	209.9869	208.7272	7.112431	33.39785
1534	5.30068	3.2426328	210.2365	208.9751	7.112437	33.39773
1535	5.30068	3.2426954	210.4923	209.2293	7.112410	33.39831
1536	5.30078	3.2426330	210.7360	209.4714	7.112437	33.39738
1537	5.30083	3.2424142	210.9886	209.7224	7.112553	33.39470
1538	5.30063	3.2423831	211.2292	209.9614	7.112600	33.39442
1539	5.30048	3.2423831	211.4668	210.1974	7.112624	33.39445
1540	5.30048	3.2423832	211.7104	210.4394	7.112630	33.39433
1541	5.30028	3.2428835	211.9601	210.6875	7.112394	33.40012
1542	5.30078	3.2427897	212.2066	210.9324	7.112387	33.39843
1543	5.30093	3.2431587	212.4320	211.1564	7.112177	33.40238
1544	5.30123	3.2430337	212.6784	211.4012	7.112212	33.40053
1545	5.30143	3.2427587	212.9160	211.6372	7.112340	33.39707
1546	5.30128	3.2425400	213.1718	211.8913	7.112481	33.39459
1547	5.30108	3.2424463	213.4304	212.1482	7.112562	33.39359
1548	5.30073	3.2424151	213.6773	212.3936	7.112628	33.39346
1549	5.30053	3.2424464	213.9055	212.6202	7.112642	33.39390
1550	5.30053	3.2425403	214.1371	212.8503	7.112597	33.39486
1551	5.30048	3.2425403	214.3683	213.0800	7.112609	33.39479
1552	5.30053	3.2424154	214.5967	213.3069	7.112674	33.39320
1553	5.30058	3.2425405	214.8372	213.5459	7.112607	33.39446
1554	5.30058	3.2426969	215.0687	213.7759	7.112529	33.39613
1555	5.30053	3.2427282	215.2940	213.9996	7.112524	33.39642
1556	5.30078	3.2427595	215.5254	214.2295	7.112481	33.39641
1557	5.30078	3.2427908	215.7417	214.4444	7.112470	33.39666
1558	5.30078	3.2427909	215.9608	214.6621	7.112475	33.39655
1559	5.30088	3.2428222	216.1891	214.8889	7.112451	33.39670
1560	5.30083	3.2427910	216.4022	215.1007	7.112479	33.39628
1561	5.30088	3.2427911	216.6244	215.3214	7.112478	33.39612
1562	5.30083	3.2427912	216.8501	215.5456	7.112489	33.39606
1563	5.30083	3.2428600	217.0752	215.7692	7.112458	33.39673
1564	5.30098	3.2429726	217.2914	215.9840	7.112384	33.39776
1565	5.30118	3.2429477	217.5077	216.1989	7.112378	33.39717
1566	5.30118	3.2429728	217.7330	216.4227	7.112370	33.39734
1567	5.30118	3.2430979	217.9583	216.6466	7.112308	33.39866
1568	5.30133	3.2438420	218.1867	216.8735	7.111898	33.40689
1569	5.30188	3.2439046	218.4086	217.0940	7.111801	33.40695
1570	5.30243	3.2444612	218.6220	217.3059	7.111441	33.41265
1571	5.30307	3.2443675	218.8382	217.5207	7.111415	33.41083
1572	5.30367	3.2442487	219.0604	217.7414	7.111409	33.40876
1573	5.30382	3.2440612	219.2705	217.9502	7.111496	33.40637
1574	5.30387	3.2440925	219.4867	218.1649	7.111478	33.40657
1575	5.30382	3.2437799	219.6935	218.3704	7.111656	33.40294
1576	5.30387	3.2444616	219.9070	218.5825	7.111291	33.41057
1577	5.30407	3.2446805	220.1322	218.8063	7.111154	33.41276
1578	5.30447	3.2447744	220.3516	219.0242	7.111060	33.41332
1579	5.30467	3.2448683	220.5615	219.2327	7.110990	33.41409
1580	5.30477	3.2452060	220.7839	219.4536	7.110802	33.41774
1581	5.30497	3.2453312	220.9941	219.6625	7.110715	33.41886
1582	5.30497	3.2454876	221.1978	219.8648	7.110637	33.42054
1583	5.30502	3.2456753	221.4293	220.0948	7.110536	33.42252
1584	5.30492	3.2458317	221.6426	220.3067	7.110470	33.42430
1585	5.30472	3.2458005	221.8647	220.5274	7.110516	33.42403
1586	5.30477	3.2459820	222.0752	220.7365	7.110418	33.42595
1587	5.30462	3.2458569	222.2938	220.9537	7.110509	33.42456
1588	5.30462	3.2460134	222.5133	221.1717	7.110430	33.42624
1589	5.30457	3.2460447	222.7479	221.4048	7.110425	33.42652
1590	5.30467	3.2461073	222.9974	221.6527	7.110385	33.42702
1591	5.30457	3.2461074	223.2287	221.8825	7.110403	33.42700
1592	5.30467	3.2461075	223.4540	222.1062	7.110396	33.42679
1593	5.30457	3.2461075	223.6704	222.3212	7.110414	33.42678
1594	5.30462	3.2461389	223.8895	222.5389	7.110396	33.42698
1595	5.30457	3.2461702	224.1087	222.7567	7.110390	33.42727
1596	5.30452	3.2463267	224.3279	222.9744	7.110318	33.42900
1597	5.30447	3.2462955	224.5471	223.1922	7.110346	33.42858
1598	5.30452	3.2463893	224.7693	223.4129	7.110295	33.42949
1599	5.30442	3.2464207	224.9857	223.6279	7.110296	33.42984
1600	5.30452	3.2464833	225.2232	223.8638	7.110256	33.43034
1601	5.30422	3.2465772	225.4391	224.0783	7.110248	33.43160
1602	5.30412	3.2465773	225.6583	224.2961	7.110265	33.43159
1603	5.30387	3.2466336	225.8806	224.5169	7.110272	33.43237
1604	5.30357	3.2466963	226.0941	224.7290	7.110281	33.43328
1605	5.30342	3.2467276	226.3191	224.9525	7.110288	33.43367
1606	5.30337	3.2467277	226.5354	225.1674	7.110299	33.43362
1607	5.30317	3.2467590	226.7456	225.3762	7.110312	33.43407
1608	5.30303	3.2467904	226.9645	225.5937	7.110319	33.43446
1609	5.30288	3.2469155	227.1869	225.8146	7.110276	33.43593
1610	5.30258	3.2469469	227.4032	226.0295	7.110302	33.43648
1611	5.30243	3.2470721	227.6162	226.2411	7.110258	33.43795
1612	5.30208	3.2471347	227.8262	226.4497	7.110273	33.43891
1613	5.30213	3.2472286	228.0517	226.6737	7.110222	33.43982
1614	5.30203	3.2472599	228.2709	226.8915	7.110223	33.44016
1615	5.30193	3.2472913	228.4871	227.1062	7.110224	33.44051
1616	5.30198	3.2473226	228.6972	227.3150	7.110206	33.44072
1617	5.30203	3.2473227	228.9135	227.5299	7.110205	33.44056
1618	5.30188	3.2473540	229.1083	227.7234	7.110211	33.44097
1619	5.30193	3.2474104	229.3214	227.9350	7.110180	33.44145
1620	5.30203	3.2474417	229.5406	228.1528	7.110156	33.44160
1621	5.30203	3.2474105	229.7414	228.3522	7.110177	33.44115
1622	5.30203	3.2475670	229.9423	228.5519	7.110099	33.44283
1623	5.30193	3.2475358	230.1499	228.7580	7.110133	33.44247
1624	5.30193	3.2475984	230.3658	228.9726	7.110104	33.44308
1625	5.30208	3.2477861	230.5731	229.1785	7.109990	33.44497
1626	5.30203	3.2478800	230.7738	229.3778	7.109951	33.44599
1627	5.30213	3.2479614	230.9900	229.5926	7.109900	33.44671
1628	5.30213	3.2480991	231.1939	229.7951	7.109832	33.44818
1629	5.30208	3.2480679	231.4071	230.0070	7.109859	33.44777
1630	5.30238	3.2481305	231.6170	230.2155	7.109794	33.44808
1631	5.30228	3.2482494	231.8334	230.4305	7.109748	33.44943
1632	5.30243	3.2483434	232.0616	230.6571	7.109684	33.45024
1633	5.30248	3.2484060	232.3022	230.8962	7.109650	33.45078
1634	5.30253	3.2485312	232.5122	231.1048	7.109582	33.45205
1635	5.30273	3.2486877	232.7346	231.3257	7.109479	33.45353
1636	5.30293	3.2483123	232.9384	231.5282	7.109659	33.44894
1637	5.30283	3.2481310	233.1518	231.7401	7.109774	33.44686
1638	5.30263	3.2483125	233.3496	231.9366	7.109706	33.44904
1639	5.30258	3.2482813	233.5384	232.1242	7.109734	33.44863
1640	5.30263	3.2485941	233.7485	232.3329	7.109565	33.45205
1641	5.30298	3.2493387	233.9678	232.5507	7.109130	33.46010
1642	5.30387	3.2490572	234.1779	232.7594	7.109173	33.45588
1643	5.30427	3.2493076	234.3877	232.9678	7.108995	33.45824
1644	5.30457	3.2494328	234.5950	233.1737	7.108896	33.45926
1645	5.30502	3.2493703	234.7991	233.3765	7.108878	33.45800
1646	5.30522	3.2494016	235.0182	233.5942	7.108842	33.45805
1647	5.30522	3.2495268	235.2281	233.8027	7.108780	33.45937
1648	5.30532	3.2494330	235.4352	234.0084	7.108822	33.45810
1649	5.30522	3.2494644	235.6426	234.2144	7.108823	33.45845
1650	5.30507	3.2494957	235.8584	234.4288	7.108830	33.45885
1651	5.30527	3.2498650	236.0593	234.6284	7.108613	33.46277
1652	5.30567	3.2493707	236.2604	234.8281	7.108831	33.45662
1653	5.30552	3.2498338	236.4552	235.0216	7.108607	33.46196
1654	5.30567	3.2497776	236.6535	235.2186	7.108624	33.46107
1655	5.30592	3.2502407	236.8633	235.4271	7.108350	33.46601
1656	5.30637	3.2503346	237.0579	235.6203	7.108249	33.46653
1657	5.30682	3.2504285	237.2591	235.8202	7.108148	33.46706
1658	5.30717	3.2505537	237.4539	236.0137	7.108042	33.46804
1659	5.30752	3.2505538	237.6579	236.2164	7.108003	33.46759
1660	5.30762	3.2505226	237.8529	236.4101	7.108012	33.46703
1661	5.30772	3.2505852	238.0568	236.6126	7.107971	33.46755
1662	5.30772	3.2506166	238.2576	236.8120	7.107959	33.46781
1663	5.30777	3.2506166	238.4495	237.0027	7.107957	33.46766
1664	5.30787	3.2505854	238.6416	237.1935	7.107966	33.46711
1665	5.30787	3.2505542	238.8393	237.3899	7.107987	33.46665
1666	5.30787	3.2504603	239.0344	237.5838	7.108042	33.46548
1667	5.30782	3.2503665	239.2232	237.7713	7.108103	33.46437
1668	5.30772	3.2503040	239.4087	237.9555	7.108153	33.46366
1669	5.30767	3.2502916	239.5972	238.1428	7.108170	33.46347
1670	5.30752	3.2503041	239.7921	238.3364	7.108187	33.46367
1671	5.30757	3.2505232	239.9932	238.5362	7.108068	33.46602
1672	5.30772	3.2505233	240.1699	238.7116	7.108054	33.46578
1673	5.30777	3.2504608	240.3708	238.9113	7.108086	33.46492
1674	5.30777	3.2504921	240.5593	239.0985	7.108073	33.46518
1675	5.30782	3.2504922	240.7577	239.2956	7.108072	33.46503
1676	5.30782	3.2506174	240.9797	239.5161	7.108010	33.46635
1677	5.30802	3.2507051	241.1777	239.7128	7.107943	33.46705
1678	5.30797	3.2507677	241.3725	239.9062	7.107921	33.46772
1679	5.30802	3.2507365	241.5523	240.0848	7.107935	33.46722
1680	5.30797	3.2507991	241.7349	240.2662	7.107912	33.46789
1681	5.30777	3.2508305	241.9115	240.4417	7.107925	33.46836
1682	5.30782	3.2508305	242.1063	240.6352	7.107923	33.46822
1683	5.30767	3.2508932	242.2862	240.8139	7.107912	33.46899
1684	5.30772	3.2508932	242.4688	240.9953	7.107910	33.46885
1685	5.30767	3.2509246	242.6486	241.1739	7.107904	33.46917
1686	5.30772	3.2509559	242.8158	241.3400	7.107885	33.46939
1687	5.30782	3.2510185	242.9864	241.5094	7.107843	33.46992
1688	5.30777	3.2509873	243.1571	241.6790	7.107870	33.46953
1689	5.30792	3.2509248	243.3428	241.8635	7.107889	33.46857
1690	5.30787	3.2507997	243.5131	242.0327	7.107966	33.46711
1691	5.30787	3.2507997	243.6775	242.1959	7.107970	33.46703
1692	5.30777	3.2507998	243.8600	242.3772	7.107987	33.46703
1693	5.30792	3.2508311	244.0279	242.5440	7.107955	33.46716
1694	5.30792	3.2508625	244.1862	242.7012	7.107942	33.46744
1695	5.30782	3.2508625	244.3382	242.8523	7.107958	33.46746
1696	5.30787	3.2508313	244.4631	242.9763	7.107972	33.46699
1697	5.30787	3.2507687	244.5423	243.0549	7.108007	33.46624
1698	5.30777	3.2507687	244.5731	243.0855	7.108020	33.46632
1699	5.30787	3.2508313	244.5669	243.0794	7.107974	33.46694
1700	5.30792	3.2508939	244.5335	243.0462	7.107934	33.46762
1701	5.30831	3.2510503	244.5034	243.0163	7.107800	33.46902
1702	5.30911	3.2510503	244.4881	243.0011	7.107700	33.46823
1703	5.30976	3.2509877	244.4761	242.9892	7.107653	33.46688
1704	5.30981	3.2509877	244.4610	242.9742	7.107646	33.46684
1705	5.30981	3.2509877	244.4551	242.9683	7.107646	33.46684
1706	5.30996	3.2509752	244.4368	242.9502	7.107634	33.46656
1707	5.30981	3.2509251	244.4156	242.9291	7.107678	33.46614
1708	5.30946	3.2508938	244.3942	242.9079	7.107738	33.46615
1709	5.30926	3.2508938	244.3761	242.8898	7.107762	33.46635
1710	5.30896	3.2509564	244.3518	242.8658	7.107766	33.46738
1711	5.30911	3.2509877	244.3367	242.8508	7.107730	33.46760
1712	5.30926	3.2509876	244.3216	242.8358	7.107711	33.46745
1713	5.30946	3.2509876	244.3124	242.8266	7.107686	33.46726
1714	5.30956	3.2510815	244.2884	242.8027	7.107623	33.46824
1715	5.30976	3.2510815	244.2699	242.7844	7.107598	33.46805
1716	5.30971	3.2511441	244.2397	242.7544	7.107570	33.46883
1717	5.30991	3.2512066	244.2155	242.7303	7.107511	33.46936
1718	5.31046	3.2512379	244.1854	242.7004	7.107426	33.46918
1719	5.31091	3.2511440	244.1670	242.6822	7.107419	33.46767
1720	5.31091	3.2511440	244.1335	242.6489	7.107419	33.46769
1721	5.31091	3.2511440	244.1093	242.6249	7.107418	33.46770
1722	5.31086	3.2512379	244.0821	242.5979	7.107374	33.46884
1723	5.31076	3.2512379	244.0487	242.5646	7.107385	33.46895
1724	5.31076	3.2512692	244.0179	242.5340	7.107368	33.46933
1725	5.31096	3.2513004	243.9969	242.5132	7.107326	33.46950
1726	5.31106	3.2513317	243.9697	242.4861	7.107296	33.46977
1727	5.31126	3.2513317	243.9359	242.4527	7.107270	33.46958
1728	5.31141	3.2513943	243.8906	242.4077	7.107217	33.47017
1729	5.31156	3.2513630	243.8144	242.3320	7.107214	33.46970
1730	5.31171	3.2513003	243.6746	242.1930	7.107225	33.46891
1731	5.31161	3.2513942	243.5044	242.0240	7.107184	33.47017
1732	5.31191	3.2513941	243.3218	241.8426	7.107142	33.46996
1733	5.31201	3.2513315	243.1394	241.6614	7.107159	33.46923
1734	5.31221	3.2514879	242.9630	241.4862	7.107046	33.47091
1735	5.31301	3.2514565	242.7804	241.3048	7.106960	33.46985
1736	5.31311	3.2513939	242.6008	241.1264	7.106976	33.46912
1737	5.31321	3.2513312	242.4154	240.9423	7.106993	33.46840
1738	5.31291	3.2511747	242.2359	240.7639	7.107110	33.46700
1739	5.31241	3.2509869	242.0474	240.5767	7.107267	33.46545
1740	5.31181	3.2509556	241.8525	240.3831	7.107354	33.46579
1741	5.31116	3.2509117	241.6642	240.1960	7.107454	33.46603
1742	5.31061	3.2508616	241.4755	240.0086	7.107544	33.46610
1743	5.31031	3.2508615	241.2896	239.8239	7.107577	33.46649
1744	5.30986	3.2508928	241.1012	239.6368	7.107612	33.46739
1745	5.30986	3.2509240	240.8976	239.4345	7.107590	33.46785
1746	5.30986	3.2509552	240.6999	239.2381	7.107569	33.46830
1747	5.31006	3.2509239	240.4929	239.0325	7.107556	33.46785
1748	5.31006	3.2508925	240.2952	238.8362	7.107568	33.46759
1749	5.31006	3.2508925	240.0883	238.6306	7.107563	33.46770
1750	5.31011	3.2508924	239.8812	238.4249	7.107552	33.46775
1751	5.31021	3.2509236	239.6897	238.2347	7.107519	33.46810
1752	5.31026	3.2508923	239.4796	238.0259	7.107524	33.46780
1753	5.31026	3.2508609	239.2666	237.8144	7.107536	33.46755
1754	5.31031	3.2508295	239.0630	237.6121	7.107542	33.46724
1755	5.31026	3.2508295	238.8498	237.4004	7.107543	33.46740
1756	5.31021	3.2507981	238.6282	237.1803	7.107561	33.46720
1757	5.31011	3.2507668	238.4213	236.9747	7.107585	33.46705
1758	5.31011	3.2507667	238.2051	236.7599	7.107580	33.46716
1759	5.31006	3.2507666	237.9923	236.5485	7.107581	33.46731
1760	5.31006	3.2507040	237.7793	236.3370	7.107610	33.46670
1761	5.31021	3.2506726	237.5569	236.1161	7.107603	33.46631
1762	5.31016	3.2505224	237.3412	235.9018	7.107684	33.46475
1763	5.31016	3.2505223	237.1279	235.6899	7.107679	33.46486
1764	5.31011	3.2504909	236.9090	235.4725	7.107697	33.46466
1765	5.31021	3.2504909	236.6870	235.2519	7.107679	33.46467
1766	5.31011	3.2504595	236.4649	235.0313	7.107703	33.46452
1767	5.31006	3.2503343	236.2397	234.8076	7.107771	33.46326
1768	5.30996	3.2502091	236.0116	234.5810	7.107845	33.46204
1769	5.30981	3.2501464	235.7864	234.3572	7.107891	33.46159
1770	5.30956	3.2500525	235.5519	234.1243	7.107967	33.46088
1771	5.30936	3.2500524	235.3209	233.8949	7.107986	33.46120
1772	5.30941	3.2500524	235.0838	233.6593	7.107975	33.46126
1773	5.30946	3.2500836	234.8521	233.4292	7.107946	33.46169
1774	5.30961	3.2500522	234.6152	233.1938	7.107939	33.46130
1775	5.30951	3.2500208	234.3837	232.9638	7.107963	33.46116
1776	5.30931	3.2500521	234.1499	232.7316	7.107965	33.46183
1777	5.30921	3.2500833	233.9124	232.4957	7.107956	33.46241
1778	5.30921	3.2500519	233.6779	232.2628	7.107967	33.46216
1779	5.30926	3.2499267	233.4497	232.0360	7.108022	33.46080
1780	5.30901	3.2498328	233.2156	231.8035	7.108098	33.46009
1781	5.30881	3.2497138	232.9813	231.5708	7.108180	33.45905
1782	5.30856	3.2496199	232.7408	231.3318	7.108256	33.45835
1783	5.30817	3.2495885	232.5035	231.0961	7.108317	33.45851
1784	5.30797	3.2495259	232.2663	230.8605	7.108369	33.45811
1785	5.30777	3.2495571	232.0259	230.6217	7.108372	33.45879
1786	5.30772	3.2494319	231.7856	230.3829	7.108439	33.45753
1787	5.30752	3.2494005	231.5452	230.1441	7.108475	33.45749
1788	5.30737	3.2492440	231.2990	229.8996	7.108571	33.45598
1789	5.30712	3.2491188	231.0521	229.6543	7.108664	33.45492
1790	5.30667	3.2490249	230.8091	229.4129	7.108764	33.45442
1791	5.30647	3.2489059	230.5656	229.1710	7.108846	33.45338
1792	5.30617	3.2488120	230.3223	228.9293	7.108928	33.45273
1793	5.30592	3.2485617	230.0788	228.6874	7.109087	33.45024
1794	5.30572	3.2484678	229.8291	228.4394	7.109156	33.44949
1795	5.30552	3.2482174	229.5796	228.1916	7.109308	33.44696
1796	5.30527	3.2481610	229.3209	227.9346	7.109364	33.44669
1797	5.30522	3.2478169	229.0744	227.6897	7.109548	33.44294
1798	5.30502	3.2477230	228.8279	227.4448	7.109617	33.44219
1799	5.30487	3.2478167	228.5816	227.2001	7.109580	33.44353
1800	5.30472	3.2477854	228.3352	226.9553	7.109609	33.44345
1801	5.30457	3.2477228	228.0798	226.7016	7.109655	33.44301
1802	5.30457	3.2476288	227.8302	226.4537	7.109699	33.44206
1803	5.30452	3.2475975	227.5776	226.2027	7.109716	33.44188
1804	5.30457	3.2475036	227.3313	225.9581	7.109755	33.44088
1805	5.30437	3.2475035	227.0785	225.7069	7.109773	33.44121
1806	5.30442	3.2474409	226.8291	225.4592	7.109795	33.44057
1807	5.30417	3.2474408	226.5707	225.2024	7.109820	33.44095
1808	5.30417	3.2473781	226.3029	224.9365	7.109847	33.44036
1809	5.30417	3.2473530	226.0350	224.6703	7.109854	33.44021
1810	5.30402	3.2473217	225.7795	224.4164	7.109883	33.44013
1811	5.30402	3.2472903	225.5205	224.1592	7.109894	33.43990
1812	5.30402	3.2472277	225.2744	223.9146	7.109922	33.43931
1813	5.30392	3.2472276	225.0249	223.6668	7.109928	33.43954
1814	5.30382	3.2472275	224.7725	223.4161	7.109935	33.43976
1815	5.30392	3.2471962	224.5321	223.1772	7.109934	33.43942
1816	5.30387	3.2471961	224.2705	222.9173	7.109934	33.43961
1817	5.30397	3.2471647	224.0178	222.6664	7.109932	33.43927
1818	5.30387	3.2471334	223.7622	222.4124	7.109955	33.43914
1819	5.30397	3.2470708	223.5097	222.1616	7.109970	33.43846
1820	5.30397	3.2469456	223.2691	221.9226	7.110031	33.43715
1821	5.30397	3.2468830	223.0167	221.6719	7.110059	33.43656
1822	5.30402	3.2467578	222.7610	221.4178	7.110114	33.43521
1823	5.30417	3.2466951	222.5054	221.1639	7.110122	33.43447
1824	5.30442	3.2466012	222.2618	220.9219	7.110136	33.43327
1825	5.30477	3.2465449	222.0158	220.6775	7.110117	33.43241
1826	5.30492	3.2465135	221.7721	220.4353	7.110109	33.43202
1827	5.30502	3.2464196	221.5318	220.1967	7.110141	33.43097
1828	5.30502	3.2463382	221.2763	219.9428	7.110178	33.43017
1829	5.30512	3.2463256	221.0391	219.7072	7.110167	33.43004
1830	5.30527	3.2462630	220.7953	219.4650	7.110176	33.42930
1831	5.30532	3.2462004	220.5489	219.2202	7.110198	33.42866
1832	5.30552	3.2460752	220.2994	218.9724	7.110234	33.42716
1833	5.30582	3.2460751	220.0623	218.7368	7.110191	33.42698
1834	5.30597	3.2459500	219.8276	218.5036	7.110234	33.42552
1835	5.30602	3.2458874	219.5998	218.2773	7.110255	33.42487
1836	5.30597	3.2458310	219.3532	218.0324	7.110286	33.42440
1837	5.30607	3.2457996	219.1129	217.7936	7.110285	33.42406
1838	5.30612	3.2455494	218.8757	217.5580	7.110406	33.42127
1839	5.30617	3.2451428	218.6351	217.3189	7.110611	33.41670
1840	5.30627	3.2448050	218.4040	217.0893	7.110774	33.41286
1841	5.30627	3.2446174	218.1728	216.8597	7.110869	33.41083
1842	5.30607	3.2444922	217.9292	216.6177	7.110955	33.40973
1843	5.30597	3.2443671	217.6951	216.3851	7.111028	33.40851
1844	5.30582	3.2440919	217.4604	216.1519	7.111188	33.40564
1845	5.30567	3.2439980	217.2114	215.9045	7.111251	33.40484
1846	5.30547	3.2437791	216.9708	215.6655	7.111387	33.40266
1847	5.30527	3.2436852	216.7334	215.4297	7.111457	33.40191
1848	5.30507	3.2436539	216.4869	215.1848	7.111492	33.40187
1849	5.30497	3.2436288	216.2405	214.9400	7.111512	33.40181
1850	5.30507	3.2435036	216.0001	214.7012	7.111561	33.40040
1851	5.30502	3.2435348	215.7568	214.4594	7.111545	33.40093
1852	5.30512	3.2434410	215.5011	214.2054	7.111577	33.39989
1853	5.30492	3.2433784	215.2486	213.9546	7.111629	33.39950
1854	5.30482	3.2434096	215.0023	213.7099	7.111619	33.40008
1855	5.30467	3.2434720	214.7526	213.4618	7.111598	33.40106
1856	5.30477	3.2435657	214.5094	213.2202	7.111530	33.40216
1857	5.30467	3.2436532	214.2566	212.9691	7.111490	33.40338
1858	5.30467	3.2437156	214.0100	212.7240	7.111451	33.40422
1859	5.30487	3.2436843	213.7575	212.4732	7.111437	33.40379
1860	5.30497	3.2436279	213.4930	212.2105	7.111448	33.40318
1861	5.30502	3.2435341	213.2221	211.9413	7.111486	33.40219
1862	5.30507	3.2434714	212.9784	211.6992	7.111507	33.40155
1863	5.30497	3.2433776	212.7231	211.4456	7.111564	33.40071
1864	5.30467	3.2434713	212.4767	211.2007	7.111545	33.40220
1865	5.30447	3.2435025	212.2332	210.9588	7.111548	33.40288
1866	5.30452	3.2434086	211.9775	210.7048	7.111586	33.40188
1867	5.30432	3.2432835	211.7220	210.4510	7.111671	33.40078
1868	5.30412	3.2431271	211.4663	210.1970	7.111774	33.39932
1869	5.30407	3.2430020	211.2227	209.9550	7.111841	33.39807
1870	5.30387	3.2429456	210.9675	209.7014	7.111890	33.39775
1871	5.30357	3.2428518	210.7208	209.4562	7.111971	33.39710
1872	5.30342	3.2426954	210.4652	209.2024	7.112068	33.39559
1873	5.30303	3.2426015	210.2190	208.9578	7.112162	33.39504
1874	5.30278	3.2425389	209.9631	208.7035	7.112220	33.39470
1875	5.30258	3.2425076	209.7076	208.4497	7.112256	33.39467
1876	5.30258	3.2424763	209.4613	208.2050	7.112267	33.39444
1877	5.30243	3.2423512	209.2057	207.9511	7.112346	33.39329
1878	5.30228	3.2422886	208.9529	207.6999	7.112392	33.39285
1879	5.30203	3.2423510	208.7034	207.4520	7.112384	33.39394
1880	5.30198	3.2423197	208.4600	207.2102	7.112401	33.39375
1881	5.30198	3.2423196	208.1982	206.9501	7.112395	33.39388
1882	5.30183	3.2422883	207.9425	206.6961	7.112424	33.39380
1883	5.30193	3.2423507	207.6933	206.4484	7.112373	33.39454
1884	5.30198	3.2416379	207.4408	206.1976	7.112741	33.38648
1885	5.30193	3.2423193	207.1819	205.9404	7.112378	33.39444
1886	5.30188	3.2423192	206.9328	205.6929	7.112378	33.39461
1887	5.30183	3.2423816	206.6831	205.4448	7.112345	33.39550
1888	5.30193	3.2424128	206.4303	205.1936	7.112310	33.39588
1889	5.30208	3.2424440	206.1810	204.9460	7.112269	33.39622
1890	5.30218	3.2423814	205.9314	204.6981	7.112284	33.39553
1891	5.30213	3.2423813	205.6699	204.4382	7.112284	33.39571
1892	5.30203	3.2423812	205.4143	204.1842	7.112291	33.39593
1893	5.30203	3.2423499	205.1554	203.9271	7.112301	33.39571
1894	5.30203	3.2423186	204.8938	203.6671	7.112312	33.39548
1895	5.30213	3.2422872	204.6382	203.4132	7.112310	33.39515
1896	5.30203	3.2422621	204.3888	203.1654	7.112330	33.39509
1897	5.30183	3.2421683	204.1240	202.9023	7.112399	33.39435
1898	5.30178	3.2421057	203.8684	202.6484	7.112432	33.39381
1899	5.30188	3.2420431	203.6218	202.4033	7.112448	33.39312
1900	5.30173	3.2419805	203.3632	202.1464	7.112494	33.39269
1901	5.30173	3.2419804	203.1135	201.8983	7.112488	33.39281
1902	5.30168	3.2419803	202.8551	201.6416	7.112488	33.39299
1903	5.30178	3.2418552	202.6114	201.3995	7.112537	33.39158
1904	5.30163	3.2418239	202.3499	201.1397	7.112566	33.39151
1905	5.30153	3.2419176	202.0972	200.8887	7.112522	33.39280
1906	5.30133	3.2419488	201.8477	200.6407	7.112525	33.39348
1907	5.30128	3.2419487	201.5862	200.3810	7.112525	33.39366
1908	5.30123	3.2418861	201.3245	200.1209	7.112558	33.39313
1909	5.30133	3.2415172	201.0595	199.8576	7.112737	33.38895
1910	5.30113	3.2412671	200.7918	199.5917	7.112889	33.38643
1911	5.30098	3.2412045	200.5391	199.3406	7.112935	33.38599
1912	5.30088	3.2408981	200.2869	199.0901	7.113105	33.38272
1913	5.30063	3.2407105	200.0372	198.8420	7.113230	33.38095
1914	5.30028	3.2406792	199.7877	198.5940	7.113285	33.38106
1915	5.30018	3.2404291	199.5415	198.3494	7.113425	33.37843
1916	5.29988	3.2403353	199.2887	198.0983	7.113506	33.37778
1917	5.29978	3.2402164	199.0390	197.8502	7.113576	33.37665
1918	5.29948	3.2401226	198.7774	197.5902	7.113658	33.37601
1919	5.29938	3.2399663	198.5250	197.3395	7.113747	33.37445
1920	5.29923	3.2397787	198.2722	197.0884	7.113860	33.37258
1921	5.29903	3.2395661	198.0134	196.8312	7.113993	33.37048
1922	5.29883	3.2392223	197.7550	196.5745	7.114195	33.36689
1923	5.29858	3.2388848	197.5055	196.3265	7.114401	33.36340
1924	5.29823	3.2387285	197.2498	196.0725	7.114522	33.36209
1925	5.29804	3.2386347	197.0003	195.8246	7.114591	33.36135
1926	5.29774	3.2386658	196.7478	195.5737	7.114605	33.36213
1927	5.29749	3.2386970	196.4920	195.3196	7.114614	33.36286
1928	5.29759	3.2387907	196.2368	195.0660	7.114545	33.36396
1929	5.29764	3.2389156	195.9810	194.8119	7.114466	33.36547
1930	5.29774	3.2389780	195.7283	194.5608	7.114415	33.36621
1931	5.29789	3.2390341	195.4697	194.3038	7.114360	33.36683
1932	5.29794	3.2390028	195.2262	194.0619	7.114365	33.36654
1933	5.29774	3.2390027	194.9583	193.7958	7.114383	33.36688
1934	5.29764	3.2390027	194.7029	193.5420	7.114390	33.36710
1935	5.29779	3.2389776	194.4533	193.2940	7.114379	33.36679
1936	5.29774	3.2388838	194.2008	193.0431	7.114429	33.36590
1937	5.29769	3.2387899	193.9512	192.7951	7.114480	33.36500
1938	5.29759	3.2385087	193.6955	192.5411	7.114636	33.36202
1939	5.29739	3.2383586	193.4401	192.2873	7.114735	33.36063
1940	5.29724	3.2382648	193.1844	192.0333	7.114798	33.35984
1941	5.29719	3.2381710	192.9350	191.7855	7.114848	33.35894
1942	5.29714	3.2379522	192.6852	191.5373	7.114966	33.35662
1943	5.29689	3.2377959	192.4418	191.2955	7.115075	33.35520
1944	5.29669	3.2377084	192.1833	191.0386	7.115140	33.35453
1945	5.29659	3.2375209	191.9304	190.7873	7.115247	33.35261
1946	5.29639	3.2374271	191.6780	190.5365	7.115316	33.35187
1947	5.29634	3.2372708	191.4253	190.2855	7.115400	33.35026
1948	5.29624	3.2372082	191.1696	190.0314	7.115439	33.34977
1949	5.29619	3.2370894	190.9203	189.7837	7.115503	33.34859
1950	5.29604	3.2370581	190.6680	189.5330	7.115533	33.34851
1951	5.29619	3.2369331	190.4059	189.2726	7.115575	33.34706
1952	5.29594	3.2369018	190.1532	189.0215	7.115617	33.34708
1953	5.29594	3.2368080	189.8917	188.7617	7.115661	33.34614
1954	5.29579	3.2366517	189.6363	188.5079	7.115757	33.34463
1955	5.29584	3.2365579	189.3837	188.2569	7.115795	33.34364
1956	5.29579	3.2364704	189.1217	187.9966	7.115841	33.34282
1957	5.29544	3.2364703	188.8601	187.7367	7.115879	33.34330
1958	5.29549	3.2363140	188.5894	187.4677	7.115950	33.34160
1959	5.29549	3.2360953	188.3339	187.2139	7.116061	33.33923
1960	5.29534	3.2359703	188.0812	186.9628	7.116140	33.33808
1961	5.29534	3.2356641	187.8196	186.7029	7.116298	33.33471
1962	5.29524	3.2354141	187.5606	186.4455	7.116437	33.33209
1963	5.29489	3.2352329	187.3083	186.1948	7.116572	33.33049
1964	5.29479	3.2349517	187.0554	185.9436	7.116729	33.32751
1965	5.29464	3.2347081	186.8028	185.6926	7.116872	33.32500
1966	5.29444	3.2345206	186.5442	185.4356	7.116991	33.32319
1967	5.29419	3.2343331	186.2887	185.1818	7.117116	33.32142
1968	5.29404	3.2341832	186.0329	184.9276	7.117209	33.31998
1969	5.29394	3.2340582	185.7743	184.6707	7.117282	33.31879
1970	5.29389	3.2339332	185.5251	184.4230	7.117349	33.31753
1971	5.29374	3.2338706	185.2724	184.1720	7.117395	33.31709
1972	5.29374	3.2339018	185.0074	183.9086	7.117372	33.31758
1973	5.29379	3.2337768	184.7610	183.6638	7.117427	33.31623
1974	5.29379	3.2336830	184.5053	183.4097	7.117471	33.31529
1975	5.29359	3.2336268	184.2497	183.1558	7.117520	33.31497
1976	5.29354	3.2335955	183.9880	182.8957	7.117537	33.31480
1977	5.29349	3.2335954	183.7295	182.6389	7.117537	33.31497
1978	5.29325	3.2335016	183.4708	182.3818	7.117612	33.31428
1979	5.29315	3.2334391	183.2121	182.1248	7.117652	33.31380
1980	5.29320	3.2334078	182.9596	181.8739	7.117656	33.31352
1981	5.29320	3.2332516	182.6915	181.6075	7.117734	33.31187
1982	5.29305	3.2331016	182.4453	181.3629	7.117827	33.31043
1983	5.29305	3.2329454	182.1989	181.1180	7.117904	33.30877
1984	5.29280	3.2328829	181.9460	180.8668	7.117963	33.30843
1985	5.29265	3.2327579	181.6845	180.6069	7.118042	33.30728
1986	5.29250	3.2326017	181.4319	180.3559	7.118138	33.30577
1987	5.29240	3.2325454	181.1823	180.1079	7.118175	33.30535
1988	5.29225	3.2325141	180.9266	179.8538	7.118205	33.30527
1989	5.29210	3.2325141	180.6647	179.5936	7.118217	33.30555
1990	5.29195	3.2324515	180.4125	179.3430	7.118263	33.30511
1991	5.29185	3.2325139	180.1598	179.0919	7.118236	33.30605
1992	5.29195	3.2323889	179.9012	178.8349	7.118285	33.30465
1993	5.29180	3.2322328	179.6423	178.5777	7.118381	33.30315
1994	5.29165	3.2322639	179.3962	178.3332	7.118377	33.30378
1995	5.29150	3.2322014	179.1373	178.0759	7.118423	33.30334
1996	5.29135	3.2321076	178.8694	177.8097	7.118485	33.30256
1997	5.29155	3.2319889	178.6259	177.5678	7.118518	33.30112
1998	5.29140	3.2319888	178.3643	177.3078	7.118531	33.30140
1999	5.29145	3.2318639	178.1176	177.0627	7.118586	33.30005
2000	5.29150	3.2317327	177.8773	176.8239	7.118644	33.29862
2001	5.29150	3.2316764	177.6278	176.5760	7.118668	33.29810
2002	5.29140	3.2316139	177.3782	176.3280	7.118708	33.29762
2003	5.29160	3.2314640	177.1378	176.0891	7.118758	33.29583
2004	5.29155	3.2313702	176.8880	175.8409	7.118808	33.29493
2005	5.29135	3.2313702	176.6327	175.5872	7.118827	33.29526
2006	5.29130	3.2312764	176.3801	175.3363	7.118877	33.29436
2007	5.29110	3.2312451	176.1276	175.0853	7.118913	33.29433
2008	5.29110	3.2312451	175.8808	174.8401	7.118907	33.29445
2009	5.29120	3.2311825	175.6437	174.6045	7.118923	33.29376
2010	5.29105	3.2311825	175.3940	174.3564	7.118936	33.29403
2011	5.29115	3.2311200	175.1628	174.1267	7.118951	33.29333
2012	5.29105	3.2310887	174.9196	173.8850	7.118975	33.29320
2013	5.29090	3.2310574	174.6851	173.6519	7.119004	33.29311
2014	5.29090	3.2310573	174.4507	173.4190	7.118999	33.29322
2015	5.29090	3.2309948	174.2103	173.1802	7.119027	33.29263
2016	5.29090	3.2309385	173.9731	172.9445	7.119051	33.29211
2017	5.29100	3.2309073	173.7417	172.7145	7.119050	33.29177
2018	5.29085	3.2309072	173.5101	172.4844	7.119063	33.29203
2019	5.29080	3.2308759	173.2762	172.2520	7.119081	33.29184
2020	5.29085	3.2308446	173.0448	172.0220	7.119086	33.29155
2021	5.29070	3.2307821	172.8195	171.7982	7.119133	33.29110
2022	5.29075	3.2307196	172.5850	171.5652	7.119154	33.29045
2023	5.29060	3.2306571	172.3601	171.3417	7.119201	33.29000
2024	5.29060	3.2305634	172.1227	171.1058	7.119246	33.28905
2025	5.29065	3.2304384	171.8916	170.8761	7.119301	33.28769
2026	5.29055	3.2303510	171.6662	170.6522	7.119355	33.28690
2027	5.29045	3.2302573	171.4468	170.4342	7.119412	33.28604
2028	5.29025	3.2301636	171.2127	170.2015	7.119481	33.28529
2029	5.29035	3.2300386	170.9816	169.9719	7.119530	33.28388
2030	5.29045	3.2299137	170.7565	169.7483	7.119579	33.28246
2031	5.29040	3.2298262	170.5432	169.5362	7.119627	33.28162
2032	5.29035	3.2297013	170.3211	169.3155	7.119695	33.28036
2033	5.29035	3.2296700	170.1051	169.1009	7.119707	33.28011
2034	5.29040	3.2295763	169.8829	168.8801	7.119745	33.27910
2035	5.29030	3.2294202	169.6698	168.6684	7.119836	33.27752
2036	5.29025	3.2293640	169.4538	168.4537	7.119868	33.27704
2037	5.29040	3.2292703	169.2283	168.2297	7.119894	33.27593
2038	5.29045	3.2292078	169.0064	168.0092	7.119916	33.27528
2039	5.29035	3.2291765	168.7964	167.8005	7.119940	33.27513
2040	5.29030	3.2291140	168.5713	167.5768	7.119974	33.27458
2041	5.29020	3.2290203	168.3460	167.3530	7.120031	33.27372
2042	5.29010	3.2290515	168.1423	167.1505	7.120022	33.27428
2043	5.29020	3.2289890	167.9290	166.9386	7.120038	33.27357
2044	5.29040	3.2289952	167.7163	166.7272	7.120005	33.27355
2045	5.29025	3.2289264	167.5000	166.5123	7.120055	33.27302
2046	5.29025	3.2289888	167.2870	166.3006	7.120017	33.27384
2047	5.29030	3.2289575	167.0802	166.0951	7.120023	33.27354
2048	5.29020	3.2289574	166.8702	165.8864	7.120030	33.27374
2049	5.29010	3.2289574	166.6569	165.6745	7.120038	33.27395
2050	5.29005	3.2289261	166.4563	165.4752	7.120056	33.27374
2051	5.28975	3.2288948	166.2431	165.2633	7.120105	33.27379
2052	5.28980	3.2288948	166.0333	165.0548	7.120094	33.27384
2053	5.28975	3.2288697	165.8293	164.8521	7.120109	33.27371
2054	5.28960	3.2287448	165.6225	164.6466	7.120189	33.27254
2055	5.28960	3.2286199	165.4124	164.4378	7.120251	33.27121
2056	5.28955	3.2285575	165.1931	164.2199	7.120286	33.27066
2057	5.28945	3.2284638	164.9771	164.0052	7.120343	33.26980
2058	5.28960	3.2284637	164.7764	163.8058	7.120320	33.26975
2059	5.28975	3.2284012	164.5786	163.6092	7.120330	33.26899
2060	5.28985	3.2282826	164.3716	163.4035	7.120376	33.26764
2061	5.28970	3.2280953	164.1768	163.2099	7.120490	33.26574
2062	5.28975	3.2279704	163.9761	163.0105	7.120546	33.26437
2063	5.28985	3.2278518	163.7781	162.8138	7.120592	33.26301
2064	5.28995	3.2276957	163.5864	162.6232	7.120659	33.26123
2065	5.28990	3.2275708	163.3825	162.4207	7.120727	33.25995
2066	5.28995	3.2275707	163.1971	162.2364	7.120716	33.26000
2067	5.28990	3.2274147	163.0053	162.0458	7.120802	33.25836
2068	5.28990	3.2272960	162.8134	161.8552	7.120861	33.25710
2069	5.28990	3.2272648	162.6278	161.6707	7.120873	33.25684
2070	5.29005	3.2271711	162.4332	161.4773	7.120900	33.25572
2071	5.29000	3.2271710	162.2384	161.2837	7.120901	33.25586
2072	5.29000	3.2271086	162.0466	161.0931	7.120930	33.25525
2073	5.29010	3.2270773	161.8488	160.8966	7.120930	33.25489
2074	5.29005	3.2270772	161.6633	160.7122	7.120932	33.25503
2075	5.28995	3.2270460	161.4743	160.5245	7.120956	33.25487
2076	5.28995	3.2270771	161.2887	160.3400	7.120935	33.25532
2077	5.28985	3.2270459	161.1003	160.1527	7.120960	33.25515
2078	5.28980	3.2270146	160.9084	159.9621	7.120979	33.25494
2079	5.28985	3.2269833	160.7230	159.7779	7.120985	33.25463
2080	5.28985	3.2270083	160.5341	159.5901	7.120967	33.25501
2081	5.28995	3.2270144	160.3545	159.4116	7.120947	33.25507
2082	5.29000	3.2270144	160.1691	159.2274	7.120936	33.25511
2083	5.29015	3.2269519	159.9832	159.0427	7.120947	33.25435
2084	5.28995	3.2269207	159.8006	158.8612	7.120984	33.25428
2085	5.29005	3.2268020	159.6179	158.6796	7.121031	33.25292
2086	5.29005	3.2268020	159.4324	158.4953	7.121026	33.25301
2087	5.28995	3.2268019	159.2438	158.3079	7.121034	33.25320
2088	5.28990	3.2266459	159.0643	158.1295	7.121120	33.25156
2089	5.28985	3.2264898	158.8787	157.9451	7.121205	33.24992
2090	5.28980	3.2263712	158.7022	157.7697	7.121271	33.24870
2091	5.28985	3.2264023	158.5164	157.5851	7.121243	33.24910
2092	5.28995	3.2262463	158.3429	157.4126	7.121310	33.24731
2093	5.28990	3.2262462	158.1604	157.2313	7.121312	33.24745
2094	5.29000	3.2262462	157.9809	157.0529	7.121296	33.24744
2095	5.29010	3.2261837	157.7893	156.8625	7.121312	33.24672
2096	5.29010	3.2261525	157.6098	156.6842	7.121325	33.24646
2097	5.29020	3.2260276	157.4210	156.4965	7.121374	33.24503
2098	5.29025	3.2259651	157.2382	156.3148	7.121397	33.24435
2099	5.29035	3.2258777	157.0528	156.1306	7.121427	33.24335
2100	5.29050	3.2258777	156.8609	155.9399	7.121404	33.24330
2101	5.29050	3.2258776	156.6877	155.7678	7.121400	33.24338
2102	5.29075	3.2257528	156.5079	155.5892	7.121431	33.24180
2103	5.29070	3.2257215	156.3285	155.4108	7.121450	33.24158
2104	5.29090	3.2256591	156.1520	155.2354	7.121454	33.24076
2105	5.29090	3.2255966	155.9694	155.0540	7.121483	33.24014
2106	5.29095	3.2255030	155.7898	154.8755	7.121523	33.23911
2107	5.29085	3.2254717	155.5921	154.6791	7.121548	33.23895
2108	5.29095	3.2254155	155.3911	154.4793	7.121560	33.23831
2109	5.29110	3.2253842	155.2086	154.2979	7.121554	33.23790
2110	5.29120	3.2252532	155.0259	154.1163	7.121607	33.23639
2111	5.29110	3.2251658	154.8525	153.9440	7.121663	33.23558
2112	5.29090	3.2251033	154.6729	153.7655	7.121717	33.23516
2113	5.29065	3.2251033	154.4964	153.5902	7.121744	33.23549
2114	5.29080	3.2250720	154.3290	153.4238	7.121738	33.23507
2115	5.29100	3.2250720	154.1252	153.2213	7.121708	33.23497
2116	5.29140	3.2250719	153.9120	153.0094	7.121653	33.23468
2117	5.29175	3.2251342	153.6868	152.7857	7.121571	33.23516
2118	5.29235	3.2251029	153.5014	152.6013	7.121509	33.23431
2119	5.29280	3.2251029	153.3277	152.4287	7.121448	33.23395
2120	5.29310	3.2250716	153.1603	152.2624	7.121424	33.23338
2121	5.29320	3.2250716	152.9868	152.0900	7.121407	33.23337
2122	5.29330	3.2250403	152.8227	151.9269	7.121408	33.23299
2123	5.29325	3.2250091	152.6644	151.7696	7.121427	33.23276
2124	5.29295	3.2249529	152.4880	151.5943	7.121490	33.23251
2125	5.29275	3.2250090	152.3022	151.4096	7.121481	33.23344
2126	5.29260	3.2250401	152.1316	151.2401	7.121479	33.23403
2127	5.29285	3.2250401	151.9645	151.0740	7.121444	33.23387
2128	5.29300	3.2249839	151.7970	150.9076	7.121451	33.23316
2129	5.29280	3.2250088	151.6327	150.7443	7.121459	33.23372
2130	5.29265	3.2250087	151.4592	150.5719	7.121473	33.23396
2131	5.29290	3.2250399	151.2858	150.3996	7.121422	33.23416
2132	5.29315	3.2250710	151.1125	150.2273	7.121370	33.23435
2133	5.29349	3.2251021	150.9482	150.0641	7.121305	33.23444
2134	5.29399	3.2251021	150.7805	149.8974	7.121239	33.23403
2135	5.29404	3.2250396	150.6102	149.7282	7.121262	33.23335
2136	5.29409	3.2250396	150.4487	149.5677	7.121252	33.23339
2137	5.29429	3.2250395	150.2721	149.3922	7.121223	33.23328
2138	5.29429	3.2250208	150.1048	149.2260	7.121229	33.23315
2139	5.29424	3.2249833	149.9374	149.0596	7.121252	33.23285
2140	5.29414	3.2249520	149.7612	148.8844	7.121277	33.23268
2141	5.29409	3.2248584	149.5843	148.7087	7.121329	33.23175
2142	5.29394	3.2248583	149.4110	148.5364	7.121344	33.23199
2143	5.29359	3.2248583	149.2316	148.3582	7.121383	33.23242
2144	5.29344	3.2248270	149.0580	148.1856	7.121414	33.23230
2145	5.29340	3.2247958	148.8817	148.0104	7.121433	33.23208
2146	5.29295	3.2247022	148.7083	147.8381	7.121535	33.23154
2147	5.29295	3.2245773	148.5285	147.6594	7.121598	33.23021
2148	5.29240	3.2246085	148.3581	147.4901	7.121646	33.23119
2149	5.29205	3.2245460	148.1876	147.3206	7.121719	33.23091
2150	5.29190	3.2245460	148.0144	147.1485	7.121733	33.23115
2151	5.29170	3.2244898	147.8377	146.9729	7.121784	33.23079
2152	5.29155	3.2244586	147.6704	146.8066	7.121816	33.23067
2153	5.29130	3.2243337	147.4937	146.6311	7.121909	33.22958
2154	5.29105	3.2242401	147.3142	146.4527	7.121986	33.22885
2155	5.29055	3.2241777	147.1380	146.2775	7.122078	33.22872
2156	5.29025	3.2242400	146.9552	146.0958	7.122078	33.22982
2157	5.29015	3.2241464	146.7634	145.9052	7.122136	33.22894
2158	5.28995	3.2241151	146.5776	145.7206	7.122173	33.22888
2159	5.28980	3.2241151	146.3982	145.5423	7.122187	33.22912
2160	5.28965	3.2240838	146.2309	145.3761	7.122219	33.22899
2161	5.28970	3.2240838	146.0547	145.2009	7.122209	33.22903
2162	5.28975	3.2240525	145.8747	145.0221	7.122215	33.22872
2163	5.28975	3.2240275	145.6955	144.8439	7.122224	33.22852
2164	5.28980	3.2239339	145.5217	144.6713	7.122264	33.22749
2165	5.28995	3.2238715	145.3513	144.5019	7.122274	33.22671
2166	5.29020	3.2238215	145.1686	144.3204	7.122266	33.22599
2167	5.29035	3.2237778	144.9921	144.1449	7.122266	33.22543
2168	5.29050	3.2236530	144.8157	143.9697	7.122310	33.22394
2169	5.29070	3.2235656	144.6301	143.7851	7.122328	33.22284
2170	5.29065	3.2235905	144.4506	143.6068	7.122316	33.22326
2171	5.29065	3.2235031	144.2710	143.4283	7.122359	33.22236
2172	5.29065	3.2233783	144.0914	143.2498	7.122421	33.22102
2173	5.29065	3.2232223	143.9028	143.0623	7.122500	33.21933
2174	5.29090	3.2230725	143.7200	142.8807	7.122545	33.21747
2175	5.29075	3.2230413	143.5495	142.7113	7.122576	33.21734
2176	5.29080	3.2229165	143.3702	142.5330	7.122633	33.21596
2177	5.29080	3.2227605	143.1936	142.3576	7.122712	33.21427
2178	5.29065	3.2222989	143.0047	142.1698	7.122973	33.20924
2179	5.29040	3.2218685	142.8101	141.9764	7.123230	33.20466
2180	5.29025	3.2215316	142.6156	141.7831	7.123424	33.20106
2181	5.28995	3.2213196	142.4177	141.5865	7.123570	33.19904
2182	5.28975	3.2212571	142.2198	141.3898	7.123624	33.19862
2183	5.28955	3.2211947	142.0220	141.1932	7.123678	33.19820
2184	5.28960	3.2210076	141.8392	141.0116	7.123767	33.19611
2185	5.28960	3.2210387	141.6444	140.8179	7.123746	33.19656
2186	5.28955	3.2210075	141.4498	140.6245	7.123764	33.19635
2187	5.28950	3.2207018	141.2548	140.4307	7.123929	33.19301
2188	5.28945	3.2204835	141.0446	140.2219	7.124047	33.19067
2189	5.28945	3.2203089	140.8562	140.0346	7.124136	33.18877
2190	5.28955	3.2200532	140.6522	139.8318	7.124256	33.18585
2191	5.28980	3.2198723	140.4668	139.6476	7.124317	33.18363
2192	5.29025	3.2196540	140.2628	139.4449	7.124373	33.18080
2193	5.29075	3.2195916	140.0649	139.2482	7.124339	33.17969
2194	5.29120	3.2194730	139.8642	139.0487	7.124342	33.17799
2195	5.29155	3.2193483	139.6572	138.8430	7.124360	33.17633
2196	5.29190	3.2192235	139.4532	138.6403	7.124378	33.17466
2197	5.29220	3.2191923	139.2523	138.4406	7.124353	33.17410
2198	5.29235	3.2190738	139.0545	138.2440	7.124393	33.17270
2199	5.29265	3.2190737	138.8537	138.0444	7.124351	33.17251
2200	5.29275	3.2190113	138.6407	137.8327	7.124366	33.17180
2201	5.29305	3.2189177	138.4337	137.6270	7.124374	33.17054
2202	5.29369	3.2187368	138.2265	137.4211	7.124385	33.16794
2203	5.29449	3.2186432	138.0108	137.2067	7.124330	33.16619
2204	5.29494	3.2185808	137.8037	137.0009	7.124302	33.16513
2205	5.29564	3.2185808	137.5844	136.7830	7.124210	33.16455
2206	5.29604	3.2185807	137.3777	136.5775	7.124155	33.16426
2207	5.29624	3.2185495	137.1643	136.3655	7.124142	33.16381
2208	5.29649	3.2184559	136.9483	136.1508	7.124156	33.16260
2209	5.29689	3.2181690	136.7384	135.9421	7.124254	33.15904
2210	5.29739	3.2177513	136.5192	135.7243	7.124410	33.15388
2211	5.29823	3.2172900	136.3091	135.5156	7.124545	33.14788
2212	5.29928	3.2169221	136.0991	135.3068	7.124606	33.14275
2213	5.30013	3.2168909	135.8861	135.0951	7.124512	33.14166
2214	5.30073	3.2168908	135.6702	134.8805	7.124432	33.14118
2215	5.30123	3.2166726	135.4508	134.6625	7.124481	33.13830
2216	5.30168	3.2164918	135.2348	134.4478	7.124516	33.13590
2217	5.30193	3.2164606	135.0155	134.2299	7.124496	33.13541
2218	5.30213	3.2162735	134.7965	134.0122	7.124566	33.13319
2219	5.30263	3.2160615	134.5805	133.7976	7.124612	33.13038
2220	5.30312	3.2157872	134.3643	133.5827	7.124691	33.12686
2221	5.30362	3.2158183	134.1390	133.3588	7.124607	33.12684
2222	5.30417	3.2157871	133.9201	133.1412	7.124550	33.12605
2223	5.30437	3.2156001	133.6981	132.9205	7.124619	33.12383
2224	5.30467	3.2155377	133.4850	132.7087	7.124610	33.12293
2225	5.30507	3.2152946	133.2686	132.4937	7.124685	33.11987
2226	5.30532	3.2151387	133.0346	132.2611	7.124732	33.11796
2227	5.30562	3.2150576	132.8182	132.0461	7.124733	33.11684
2228	5.30597	3.2149890	132.5928	131.8220	7.124720	33.11583
2229	5.30612	3.2147085	132.3619	131.5926	7.124846	33.11260
2230	5.30642	3.2144343	132.1305	131.3625	7.124950	33.10929
2231	5.30692	3.2140977	131.9054	131.1389	7.125062	33.10506
2232	5.30752	3.2139419	131.6830	130.9178	7.125065	33.10280
2233	5.30807	3.2138483	131.4580	130.6942	7.125041	33.10131
2234	5.30871	3.2136364	131.2357	130.4733	7.125068	33.09836
2235	5.30911	3.2132688	131.0101	130.2491	7.125209	33.09388
2236	5.30976	3.2126270	130.7790	130.0194	7.125465	33.08603
2237	5.31016	3.2103285	130.5596	129.8013	7.126639	33.05951
2238	5.31011	3.2068352	130.3314	129.5745	7.128507	33.01982
2239	5.30926	3.2048183	130.1094	129.3539	7.129686	32.99775
2240	5.30807	3.2020988	129.8720	129.1179	7.131285	32.96802
2241	5.30662	3.1998156	129.6347	128.8821	7.132682	32.94352
2242	5.30527	3.1985281	129.3912	128.6400	7.133534	32.93028
2243	5.30402	3.1977382	129.1506	128.4009	7.134108	32.92261
2244	5.30298	3.1959971	128.9162	128.1680	7.135165	32.90390
2245	5.30178	3.1939269	128.6820	127.9352	7.136418	32.88158
2246	5.30028	3.1920064	128.4416	127.6963	7.137628	32.86126
2247	5.29848	3.1917950	128.2040	127.4601	7.137962	32.86073
2248	5.29729	3.1916458	127.9699	127.2275	7.138187	32.86032
2249	5.29659	3.1914904	127.7384	126.9973	7.138353	32.85935
2250	5.29614	3.1908379	127.5102	126.7705	7.138753	32.85246
2251	5.29564	3.1901544	127.2760	126.5377	7.139176	32.84527
2252	5.29489	3.1896635	127.0415	126.3047	7.139528	32.84052
2253	5.29434	3.1889676	126.8101	126.0747	7.139964	32.83323
2254	5.29335	3.1885700	126.5636	125.8298	7.140297	32.82980
2255	5.29270	3.1883587	126.3109	125.5785	7.140486	32.82815
2256	5.29205	3.1882655	126.0644	125.3336	7.140612	32.82784
2257	5.29180	3.1880232	125.8241	125.0948	7.140767	32.82545
2258	5.29145	3.1880479	125.5743	124.8465	7.140792	32.82619
2259	5.29130	3.1881162	125.3216	124.5953	7.140768	32.82725
2260	5.29130	3.1877807	125.0906	124.3657	7.140943	32.82353
2261	5.29140	3.1875384	124.8531	124.1296	7.141054	32.82079
2262	5.29095	3.1874141	124.6186	123.8965	7.141172	32.81993
2263	5.29075	3.1871718	124.3844	123.6638	7.141321	32.81748
2264	5.29030	3.1870848	124.1375	123.4184	7.141419	32.81705
2265	5.28990	3.1868673	123.8972	123.1796	7.141580	32.81508
2266	5.28970	3.1868300	123.6599	122.9437	7.141619	32.81497
2267	5.28935	3.1867182	123.4255	122.7107	7.141718	32.81415
2268	5.28910	3.1866560	123.1850	122.4717	7.141777	32.81380
2269	5.28896	3.1866249	122.9322	122.2205	7.141807	32.81372
2270	5.28886	3.1865627	122.6857	121.9755	7.141847	32.81323
2271	5.28881	3.1865067	122.4457	121.7369	7.141877	32.81276
2272	5.28871	3.1864135	122.1989	121.4916	7.141934	32.81192
2273	5.28861	3.1862892	121.9522	121.2464	7.142007	32.81072
2274	5.28861	3.1862208	121.7151	121.0107	7.142038	32.81006
2275	5.28861	3.1859599	121.4744	120.7715	7.142173	32.80721
2276	5.28866	3.1853513	121.2312	120.5298	7.142487	32.80034
2277	5.28905	3.1849538	120.9968	120.2968	7.142644	32.79553
2278	5.28940	3.1848979	120.7561	120.0576	7.142624	32.79467
2279	5.28960	3.1847426	120.5219	119.8248	7.142676	32.79282
2280	5.28965	3.1845624	120.2814	119.5858	7.142761	32.79083
2281	5.28985	3.1843575	120.0319	119.3377	7.142840	32.78842
2282	5.29035	3.1838607	119.7852	119.0926	7.143037	32.78239
2283	5.29135	3.1836806	119.5355	118.8444	7.143002	32.77949
2284	5.29240	3.1834694	119.2891	118.5995	7.142977	32.77618
2285	5.29340	3.1833762	119.0425	118.3544	7.142895	32.77426
2286	5.29444	3.1831961	118.7869	118.1003	7.142854	32.77131
2287	5.29594	3.1831339	118.5433	117.8582	7.142693	32.76926
2288	5.29729	3.1830159	118.2969	117.6133	7.142580	32.76671
2289	5.29858	3.1828854	118.0564	117.3743	7.142481	32.76408
2290	5.29993	3.1828295	117.8190	117.1383	7.142335	32.76224
2291	5.30118	3.1827984	117.5785	116.8992	7.142189	32.76079
2292	5.30228	3.1827983	117.3319	116.6542	7.142045	32.75983
2293	5.30298	3.1827423	117.0886	116.4123	7.141981	32.75863
2294	5.30367	3.1826802	116.8509	116.1761	7.141921	32.75736
2295	5.30422	3.1826801	116.5954	115.9221	7.141845	32.75695
2296	5.30492	3.1826303	116.3673	115.6954	7.141779	32.75581
2297	5.30587	3.1825868	116.1174	115.4470	7.141676	32.75451
2298	5.30712	3.1825557	115.8709	115.2020	7.141530	32.75306
2299	5.30836	3.1825246	115.6243	114.9569	7.141384	32.75161
2300	5.30916	3.1824686	115.3869	114.7209	7.141307	32.75031
2301	5.31006	3.1824065	115.1466	114.4821	7.141222	32.74884
2302	5.31136	3.1823133	114.9057	114.2427	7.141102	32.74663
2303	5.31266	3.1823380	114.6657	114.0041	7.140920	32.74577
2304	5.31376	3.1823131	114.3947	113.7347	7.140788	32.74454
2305	5.31470	3.1822509	114.1361	113.4777	7.140696	32.74304
2306	5.31565	3.1822508	113.8955	113.2386	7.140571	32.74223
2307	5.31670	3.1822507	113.6491	112.9936	7.140433	32.74133
2308	5.31785	3.1823127	113.3995	112.7456	7.140249	32.74104
2309	5.31910	3.1822816	113.1468	112.4943	7.140103	32.73959
2310	5.32029	3.1823063	112.8972	112.2463	7.139933	32.73882
2311	5.32159	3.1823435	112.6567	112.0072	7.139743	32.73810
2312	5.32279	3.1823434	112.4162	111.7682	7.139587	32.73705
2313	5.32379	3.1823433	112.1820	111.5354	7.139456	32.73619
2314	5.32449	3.1823743	111.9443	111.2992	7.139345	32.73597
2315	5.32534	3.1823432	111.7012	111.0575	7.139249	32.73491
2316	5.32594	3.1823121	111.4635	110.8213	7.139185	32.73409
2317	5.32634	3.1823058	111.2261	110.5853	7.139132	32.73375
2318	5.32673	3.1822498	110.9797	110.3404	7.139106	32.73284
2319	5.32688	3.1822498	110.7332	110.0954	7.139082	32.73282
2320	5.32693	3.1821938	110.4925	109.8561	7.139100	32.73225
2321	5.32698	3.1821937	110.2430	109.6081	7.139087	32.73233
2322	5.32693	3.1821937	110.0056	109.3721	7.139088	32.73249
2323	5.32713	3.1821936	109.7622	109.1302	7.139057	32.73242
2324	5.32723	3.1821811	109.5247	108.8941	7.139046	32.73229
2325	5.32738	3.1821003	109.2868	108.6577	7.139065	32.73135
2326	5.32723	3.1821313	109.0529	108.4252	7.139062	32.73196
2327	5.32723	3.1820381	108.8154	108.1891	7.139106	32.73102
2328	5.32723	3.1819760	108.5689	107.9441	7.139133	32.73043
2329	5.32733	3.1819759	108.3375	107.7141	7.139115	32.73045
2330	5.32748	3.1819758	108.1064	107.4843	7.139091	32.73042
2331	5.32783	3.1819571	107.8565	107.2359	7.139051	32.72999
2332	5.32778	3.1819509	107.6164	106.9973	7.139055	32.73008
2333	5.32788	3.1818577	107.3755	106.7578	7.139087	32.72905
2334	5.32793	3.1817955	107.1323	106.5161	7.139108	32.72841
2335	5.32863	3.1816775	106.8913	106.2766	7.139077	32.72650
2336	5.32943	3.1816154	106.6511	106.0378	7.139004	32.72513
2337	5.33018	3.1815222	106.4289	105.8170	7.138955	32.72345
2338	5.33088	3.1813483	106.1976	105.5870	7.138954	32.72090
2339	5.33158	3.1812179	105.9664	105.3572	7.138930	32.71885
2340	5.33243	3.1809758	105.7349	105.1271	7.138947	32.71538
2341	5.33348	3.1807027	105.4978	104.8914	7.138955	32.71136
2342	5.33462	3.1804916	105.2633	104.6583	7.138918	32.70795
2343	5.33587	3.1804605	105.0319	104.4283	7.138772	32.70649
2344	5.33697	3.1802804	104.8007	104.1985	7.138724	32.70349
2345	5.33782	3.1800631	104.5572	103.9565	7.138727	32.70030
2346	5.33877	3.1798583	104.3164	103.7171	7.138712	32.69716
2347	5.33962	3.1796410	104.0823	103.4844	7.138715	32.69398
2348	5.34032	3.1794920	103.8478	103.2513	7.138701	32.69172
2349	5.34062	3.1792810	103.6165	103.0215	7.138771	32.68913
2350	5.34067	3.1791568	103.3914	102.7976	7.138826	32.68778
2351	5.34072	3.1790947	103.1570	102.5646	7.138847	32.68714
2352	5.34077	3.1791070	102.9227	102.3317	7.138829	32.68735
2353	5.34077	3.1790076	102.6610	102.0716	7.138876	32.68635
2354	5.34087	3.1789766	102.4204	101.8324	7.138874	32.68602
2355	5.34062	3.1789144	102.1859	101.5993	7.138933	32.68567
2356	5.34062	3.1788833	101.9424	101.3573	7.138944	32.68544
2357	5.34027	3.1788833	101.7018	101.1182	7.138983	32.68590
2358	5.34052	3.1787963	101.4647	100.8825	7.138992	32.68478
2359	5.34027	3.1787839	101.2362	100.6553	7.139025	32.68500
2360	5.34017	3.1787341	101.0079	100.4285	7.139059	32.68464
2361	5.33987	3.1786720	100.7646	100.1866	7.139124	32.68435
2362	5.33967	3.1786099	100.5330	99.9564	7.139177	32.68395
2363	5.33937	3.1786098	100.2954	99.7202	7.139209	32.68436
2364	5.33912	3.1785788	100.0580	99.4842	7.139252	32.68437
2365	5.33887	3.1785539	99.8361	99.2636	7.139291	32.68444
2366	5.33892	3.1785600	99.5865	99.0155	7.139276	32.68458
2367	5.33882	3.1785227	99.3369	98.7674	7.139303	32.68438
2368	5.33872	3.1784296	99.0933	98.5253	7.139359	32.68354
2369	5.33852	3.1783364	98.8379	98.2714	7.139428	32.68280
2370	5.33827	3.1781564	98.5971	98.0320	7.139550	32.68111
2371	5.33767	3.1779764	98.3474	97.7838	7.139716	32.67977
2372	5.33722	3.1779205	98.1042	97.5421	7.139797	32.67969
2373	5.33692	3.1778212	97.8665	97.3057	7.139883	32.67897
2374	5.33652	3.1777963	97.6383	97.0790	7.139941	32.67919
2375	5.33612	3.1776412	97.4040	96.8461	7.140069	32.67793
2376	5.33582	3.1775542	97.1726	96.6160	7.140148	32.67735
2377	5.33552	3.1773122	96.9230	96.3679	7.140309	32.67501
2378	5.33517	3.1769772	96.6854	96.1317	7.140527	32.67165
2379	5.33477	3.1769647	96.4269	95.8748	7.140578	32.67203
2380	5.33452	3.1768220	96.1864	95.6357	7.140680	32.67076
2381	5.33422	3.1766730	95.9369	95.3877	7.140791	32.66948
2382	5.33388	3.1766729	95.6963	95.1485	7.140830	32.66994
2383	5.33363	3.1766419	95.4589	94.9126	7.140873	32.66995
2384	5.33358	3.1766108	95.2245	94.6795	7.140890	32.66976
2385	5.33343	3.1765797	94.9840	94.4405	7.140920	32.66967
2386	5.33333	3.1765238	94.7497	94.2076	7.140957	32.66925
2387	5.33323	3.1765237	94.5215	93.9807	7.140964	32.66946
2388	5.33308	3.1764926	94.2838	93.7445	7.140994	32.66937
2389	5.33313	3.1763065	94.0373	93.4994	7.141082	32.66732
2390	5.33308	3.1761886	93.7908	93.2543	7.141145	32.66615
2391	5.33303	3.1760954	93.5410	93.0061	7.141195	32.66526
2392	5.33333	3.1760644	93.2977	92.7642	7.141169	32.66474
2393	5.33353	3.1759774	93.0448	92.5128	7.141184	32.66368
2394	5.33363	3.1758533	92.8013	92.2707	7.141232	32.66229
2395	5.33388	3.1757974	92.5490	92.0199	7.141224	32.66153
2396	5.33407	3.1756733	92.3117	91.7841	7.141260	32.66004
2397	5.33427	3.1755802	92.0649	91.5387	7.141279	32.65891
2398	5.33447	3.1754623	91.8338	91.3090	7.141311	32.65749
2399	5.33502	3.1752823	91.5870	91.0636	7.141332	32.65503
2400	5.33567	3.1751892	91.3494	90.8275	7.141295	32.65345
2401	5.33652	3.1750651	91.1000	90.5795	7.141248	32.65133
2402	5.33757	3.1749472	90.8412	90.3223	7.141173	32.64910
2403	5.33842	3.1749161	90.5977	90.0802	7.141077	32.64804
2404	5.33907	3.1748230	90.3510	89.8350	7.141039	32.64647
2405	5.33962	3.1747361	90.1106	89.5960	7.141010	32.64506
2406	5.34032	3.1746740	89.8578	89.3447	7.140949	32.64380
2407	5.34092	3.1744631	89.6234	89.1117	7.140981	32.64093
2408	5.34202	3.1740723	89.3829	88.8726	7.141045	32.63553
2409	5.34336	3.1737684	89.1426	88.6337	7.141032	32.63087
2410	5.34501	3.1737993	88.9051	88.3977	7.140802	32.62974
2411	5.34591	3.1735760	88.6680	88.1619	7.140802	32.62644
2412	5.34676	3.1730426	88.4213	87.9167	7.140974	32.61966
2413	5.34766	3.1723792	88.1776	87.6745	7.141209	32.61135
2414	5.34871	3.1721373	87.9278	87.4261	7.141200	32.60770
2415	5.34981	3.1719822	87.6875	87.1873	7.141139	32.60499
2416	5.35056	3.1718643	87.4533	86.9544	7.141102	32.60303
2417	5.35086	3.1717899	87.2004	86.7030	7.141098	32.60202
2418	5.35156	3.1716782	86.9450	86.4491	7.141063	32.60020
2419	5.35181	3.1714363	86.7072	86.2128	7.141155	32.59732
2420	5.35201	3.1714115	86.4607	85.9677	7.141137	32.59696
2421	5.35221	3.1713184	86.2204	85.7289	7.141156	32.59583
2422	5.35236	3.1712873	85.9799	85.4898	7.141148	32.59545
2423	5.35246	3.1711819	85.7335	85.2448	7.141186	32.59427
2424	5.35236	3.1710454	85.4866	84.9994	7.141266	32.59294
2425	5.35201	3.1710144	85.2402	84.7545	7.141321	32.59305
2426	5.35181	3.1709585	84.9905	84.5062	7.141370	32.59273
2427	5.35171	3.1708965	84.7532	84.2703	7.141411	32.59224
2428	5.35146	3.1708034	84.5126	84.0311	7.141486	32.59154
2429	5.35131	3.1708281	84.2721	83.7920	7.141486	32.59209
2430	5.35136	3.1707723	84.0379	83.5592	7.141504	32.59152
2431	5.35131	3.1707722	83.7973	83.3201	7.141505	32.59169
2432	5.35131	3.1707721	83.5506	83.0748	7.141499	32.59181
2433	5.35141	3.1706543	83.3162	82.8418	7.141544	32.59049
2434	5.35146	3.1705612	83.0759	82.6029	7.141582	32.58950
2435	5.35126	3.1705736	82.8446	82.3730	7.141595	32.58995
2436	5.35101	3.1705611	82.6042	82.1340	7.141628	32.59017
2437	5.35086	3.1705300	82.3576	81.8889	7.141658	32.59008
2438	5.35071	3.1704990	82.1169	81.6496	7.141688	32.58999
2439	5.35086	3.1704121	81.8736	81.4077	7.141709	32.58898
2440	5.35101	3.1704120	81.6330	81.1685	7.141685	32.58895
2441	5.35111	3.1703500	81.3865	80.9234	7.141700	32.58827
2442	5.35131	3.1702879	81.1549	80.6932	7.141702	32.58749
2443	5.35121	3.1700151	80.9237	80.4633	7.141855	32.58459
2444	5.35136	3.1698973	80.6774	80.2185	7.141894	32.58323
2445	5.35136	3.1696865	80.4428	79.9853	7.142001	32.58095
2446	5.35156	3.1689489	80.2055	79.7494	7.142364	32.57247
2447	5.35296	3.1681742	79.9771	79.5224	7.142596	32.56241
2448	5.35510	3.1676970	79.7365	79.2832	7.142574	32.55501
2449	5.35795	3.1672384	79.5083	79.0563	7.142453	32.54714
2450	5.36080	3.1670896	79.2650	78.8145	7.142167	32.54280
2451	5.36315	3.1667859	79.0334	78.5842	7.142027	32.53718
2452	5.36555	3.1665937	78.7930	78.3452	7.141821	32.53279
2453	5.36835	3.1661538	78.5615	78.1151	7.141697	32.52518
2454	5.37154	3.1660360	78.3302	77.8851	7.141350	32.52085
2455	5.37434	3.1659429	78.0927	77.6490	7.141041	32.51720
2456	5.37609	3.1657012	77.8646	77.4223	7.140944	32.51286
2457	5.37824	3.1654905	77.6392	77.1981	7.140779	32.50849
2458	5.38064	3.1653480	77.4078	76.9681	7.140547	32.50466
2459	5.38259	3.1652797	77.1797	76.7413	7.140331	32.50211
2460	5.38419	3.1651310	76.9513	76.5143	7.140203	32.49898
2461	5.38589	3.1649760	76.7228	76.2871	7.140066	32.49568
2462	5.38744	3.1634089	76.4885	76.0542	7.140700	32.47648
2463	5.38854	3.1648086	76.2696	75.8366	7.139810	32.49144
2464	5.38949	3.1647094	76.0290	75.5974	7.139737	32.48951
2465	5.39069	3.1645235	75.8008	75.3706	7.139679	32.48634
2466	5.39189	3.1644677	75.5754	75.1465	7.139552	32.48466
2467	5.39299	3.1643747	75.3409	74.9134	7.139457	32.48265
2468	5.39394	3.1641083	75.1186	74.6923	7.139474	32.47881
2469	5.39544	3.1637118	74.8967	74.4718	7.139491	32.47297
2470	5.39759	3.1635631	74.6773	74.2536	7.139293	32.46930
2471	5.39949	3.1633834	74.4489	74.0266	7.139144	32.46553
2472	5.40129	3.1629622	74.2239	73.8029	7.139135	32.45911
2473	5.40364	3.1622067	74.0106	73.5909	7.139236	32.44836
2474	5.40725	3.1616617	73.7914	73.3729	7.139066	32.43879
2475	5.41105	3.1614510	73.5785	73.1613	7.138693	32.43283
2476	5.41400	3.1610609	73.3623	72.9463	7.138523	32.42565
2477	5.41670	3.1605779	73.1490	72.7342	7.138434	32.41766
2478	5.41925	3.1605221	72.9268	72.5134	7.138136	32.41467
2479	5.42095	3.1604848	72.7079	72.2957	7.137935	32.41271
2480	5.42246	3.1600390	72.4856	72.0747	7.137978	32.40631
2481	5.42396	3.1596180	72.2694	71.8598	7.138007	32.40019
2482	5.42606	3.1592589	72.0472	71.6389	7.137928	32.39419
2483	5.42821	3.1589245	71.8341	71.4270	7.137829	32.38842
2484	5.42996	3.1587697	71.6149	71.2091	7.137685	32.38508
2485	5.43151	3.1588068	71.3926	70.9882	7.137464	32.38411
2486	5.43241	3.1586829	71.1795	70.7763	7.137411	32.38194
2487	5.43317	3.1582929	70.9636	70.5616	7.137518	32.37690
2488	5.43442	3.1576615	70.7505	70.3497	7.137691	32.36863
2489	5.43667	3.1565166	70.5340	70.1346	7.138010	32.35357
2490	5.44032	3.1557121	70.3181	69.9198	7.137971	32.34103
2491	5.44448	3.1551056	70.1021	69.7051	7.137763	32.33025
2492	5.44823	3.1550189	69.8919	69.4962	7.137330	32.32575
2493	5.45079	3.1544497	69.6789	69.2844	7.137304	32.31694
2494	5.45324	3.1542330	69.4660	69.0727	7.137104	32.31223
2495	5.45524	3.1539979	69.2558	68.8638	7.136971	32.30774
2496	5.45690	3.1539050	69.0489	68.6581	7.136807	32.30519
2497	5.45795	3.1536390	68.8418	68.4522	7.136810	32.30127
2498	5.45915	3.1534842	68.6379	68.2495	7.136736	32.29846
2499	5.46010	3.1535336	68.4278	68.0406	7.136584	32.29820
2500	5.46075	3.1535150	68.2117	67.8258	7.136507	32.29747
2501	5.46095	3.1534284	67.9986	67.6139	7.136523	32.29640
2502	5.46120	3.1533046	67.7885	67.4050	7.136552	32.29486
2503	5.46165	3.1532179	67.5846	67.2023	7.136536	32.29354
2504	5.46221	3.1530941	67.3746	66.9935	7.136528	32.29171
2505	5.46256	3.1530631	67.1581	66.7783	7.136495	32.29113
2506	5.46296	3.1530940	66.9515	66.5729	7.136423	32.29120
2507	5.46296	3.1530630	66.7412	66.3638	7.136435	32.29095
2508	5.46316	3.1530258	66.5344	66.1582	7.136424	32.29044
2509	5.46321	3.1530381	66.3274	65.9524	7.136407	32.29063
2510	5.46336	3.1526422	66.1174	65.7436	7.136593	32.28610
2511	5.46381	3.1522525	65.9042	65.5317	7.136738	32.28135
2512	5.46476	3.1517762	65.6941	65.3228	7.136866	32.27514
2513	5.46576	3.1512876	65.4900	65.1199	7.136994	32.26874
2514	5.46726	3.1508423	65.2894	64.9205	7.137036	32.26235
2515	5.46917	3.1506381	65.0821	64.7144	7.136899	32.25831
2516	5.47072	3.1505144	64.8814	64.5148	7.136763	32.25551
2517	5.47197	3.1503659	64.6774	64.3120	7.136679	32.25272
2518	5.47293	3.1502731	64.4644	64.1002	7.136603	32.25086
2519	5.47368	3.1501865	64.2605	63.8975	7.136549	32.24926
2520	5.47433	3.1501864	64.0594	63.6976	7.136462	32.24873
2521	5.47468	3.1500070	63.8615	63.5008	7.136509	32.24646
2522	5.47538	3.1499266	63.6668	63.3073	7.136458	32.24497
2523	5.47613	3.1498523	63.4659	63.1075	7.136398	32.24350
2524	5.47673	3.1497966	63.2617	62.9045	7.136347	32.24240
2525	5.47748	3.1497038	63.0641	62.7081	7.136296	32.24072
2526	5.47809	3.1494502	62.8661	62.5112	7.136350	32.23737
2527	5.47934	3.1492585	62.6713	62.3175	7.136289	32.23409
2528	5.48074	3.1492584	62.4707	62.1181	7.136107	32.23284
2529	5.48199	3.1490729	62.2634	61.9120	7.136042	32.22964
2530	5.48300	3.1490481	62.0563	61.7061	7.135924	32.22849
2531	5.48375	3.1489429	61.8583	61.5093	7.135880	32.22668
2532	5.48465	3.1487759	61.6483	61.3005	7.135850	32.22402
2533	5.48600	3.1485965	61.4569	61.1102	7.135769	32.22079
2534	5.48766	3.1485037	61.2588	60.9133	7.135605	32.21825
2535	5.48911	3.1483738	61.0519	60.7075	7.135485	32.21548
2536	5.49127	3.1481141	60.8451	60.5019	7.135345	32.21058
2537	5.49412	3.1480275	60.6500	60.3080	7.135025	32.20695
2538	5.49733	3.1479347	60.4431	60.1022	7.134664	32.20293
2539	5.50019	3.1478480	60.2513	59.9115	7.134344	32.19930
2540	5.50264	3.1477429	60.0596	59.7209	7.134085	32.19585
2541	5.50490	3.1476933	59.8707	59.5332	7.133821	32.19322
2542	5.50686	3.1476376	59.6759	59.3395	7.133599	32.19081
2543	5.50876	3.1476376	59.4841	59.1488	7.133354	32.18908
2544	5.51037	3.1475819	59.2923	58.9581	7.133176	32.18700
2545	5.51212	3.1474582	59.0976	58.7645	7.133015	32.18402
2546	5.51498	3.1473035	58.8995	58.5675	7.132731	32.17963
2547	5.51949	3.1472169	58.7050	58.3742	7.132201	32.17442
2548	5.52386	3.1471550	58.5039	58.1743	7.131678	32.16964
2549	5.52697	3.1471734	58.2937	57.9653	7.131270	32.16697
2550	5.52907	3.1471239	58.0777	57.7505	7.131025	32.16450
2551	5.53113	3.1471238	57.8738	57.5478	7.130760	32.16263
2552	5.53279	3.1470681	57.6699	57.3450	7.130576	32.16052
2553	5.53404	3.1470433	57.4689	57.1452	7.130426	32.15914
2554	5.53499	3.1470680	57.2769	56.9544	7.130288	32.15860
2555	5.53580	3.1469196	57.0913	56.7698	7.130261	32.15624
2556	5.53700	3.1465548	56.8995	56.5791	7.130297	32.15106
2557	5.53941	3.1464064	56.7107	56.3914	7.130067	32.14717
2558	5.54182	3.1463816	56.5160	56.1978	7.129771	32.14468
2559	5.54362	3.1461652	56.3213	56.0043	7.129652	32.14060
2560	5.54553	3.1460786	56.1293	55.8134	7.129453	32.13789
2561	5.54734	3.1459859	55.9436	55.6288	7.129269	32.13521
2562	5.54970	3.1459054	55.7580	55.4442	7.129009	32.13213
2563	5.55231	3.1458374	55.5693	55.2566	7.128711	32.12896
2564	5.55487	3.1457508	55.3805	55.0689	7.128429	32.12563
2565	5.55692	3.1456580	55.1796	54.8691	7.128213	32.12271
2566	5.55853	3.1455899	54.9758	54.6665	7.128042	32.12051
2567	5.55999	3.1455713	54.7838	54.4756	7.127863	32.11900
2568	5.56094	3.1455404	54.5737	54.2667	7.127754	32.11784
2569	5.56189	3.1455094	54.3728	54.0669	7.127645	32.11668
2570	5.56290	3.1453610	54.1872	53.8825	7.127593	32.11413
2571	5.56455	3.1453053	53.9772	53.6737	7.127408	32.11202
2572	5.56621	3.1452682	53.7824	53.4800	7.127214	32.11012
2573	5.56772	3.1449715	53.5846	53.2833	7.127175	32.10542
2574	5.56988	3.1445512	53.3897	53.0895	7.127120	32.09871
2575	5.57289	3.1442298	53.1919	52.8928	7.126905	32.09230
2576	5.57615	3.1441000	52.9877	52.6898	7.126556	32.08782
2577	5.57867	3.1438651	52.7869	52.4902	7.126358	32.08287
2578	5.58088	3.1435932	52.5920	52.2964	7.126218	32.07778
2579	5.58298	3.1435375	52.3913	52.0969	7.125976	32.07524
2580	5.58494	3.1434447	52.1962	51.9029	7.125773	32.07242
2581	5.58625	3.1433520	52.0075	51.7152	7.125653	32.07022
2582	5.58761	3.1431727	51.8219	51.5308	7.125572	32.06699
2583	5.58957	3.1430924	51.6268	51.3368	7.125362	32.06431
2584	5.59132	3.1429317	51.4352	51.1462	7.125220	32.06091
2585	5.59313	3.1428451	51.2466	50.9587	7.125033	32.05831
2586	5.59504	3.1427832	51.0517	50.7649	7.124820	32.05588
2587	5.59640	3.1426658	50.8720	50.5863	7.124706	32.05335
2588	5.59770	3.1426534	50.6740	50.3894	7.124543	32.05206
2589	5.59896	3.1425730	50.4792	50.1957	7.124423	32.05006
2590	5.60007	3.1425173	50.2874	50.0050	7.124308	32.04847
2591	5.60087	3.1424864	50.0959	49.8147	7.124218	32.04745
2592	5.60162	3.1424307	49.9040	49.6238	7.124148	32.04619
2593	5.60238	3.1422453	49.7122	49.4331	7.124146	32.04348
2594	5.60333	3.1421279	49.5144	49.2364	7.124083	32.04134
2595	5.60464	3.1418869	49.3225	49.0457	7.124041	32.03747
2596	5.60630	3.1416706	49.1307	48.8550	7.123941	32.03354
2597	5.60826	3.1415285	48.9115	48.6371	7.123763	32.03018
2598	5.61017	3.1414358	48.7106	48.4373	7.123566	32.02741
2599	5.61188	3.1412874	48.5128	48.2406	7.123424	32.02421
2600	5.61343	3.1411700	48.3239	48.0528	7.123284	32.02149
2601	5.61514	3.1410217	48.1324	47.8624	7.123142	32.01829
2602	5.61710	3.1406325	47.9465	47.6776	7.123095	32.01212
2603	5.62007	3.1401260	47.7639	47.4960	7.122983	32.00367
2604	5.62444	3.1399036	47.5843	47.3174	7.122544	31.99709
2605	5.62836	3.1397368	47.4078	47.1419	7.122132	31.99157
2606	5.63168	3.1395576	47.2282	46.9633	7.121803	31.98648
2607	5.63435	3.1393784	47.0452	46.7815	7.121556	31.98202
2608	5.63676	3.1392116	46.8536	46.5909	7.121335	31.97794
2609	5.63903	3.1390201	46.6740	46.4123	7.121146	31.97372
2610	5.64109	3.1389892	46.4851	46.2246	7.120897	31.97150
2611	5.64290	3.1388100	46.3027	46.0432	7.120758	31.96785
2612	5.64466	3.1385815	46.1199	45.8614	7.120652	31.96369
2613	5.64672	3.1383900	45.9405	45.6830	7.120488	31.95967
2614	5.64909	3.1376737	45.7517	45.4953	7.120562	31.94944
2615	5.65316	3.1366921	45.5719	45.3166	7.120559	31.93460
2616	5.65940	3.1354944	45.3924	45.1381	7.120397	31.91528
2617	5.66745	3.1346302	45.2097	44.9564	7.119829	31.89801
2618	5.67515	3.1338834	45.0299	44.7777	7.119244	31.88239
2619	5.68210	3.1330194	44.8445	44.5933	7.118816	31.86618
2620	5.68864	3.1326305	44.6678	44.4176	7.118189	31.85570
2621	5.69393	3.1324268	44.4944	44.2452	7.117623	31.84850
2622	5.69786	3.1321306	44.3176	44.0694	7.117278	31.84154
2623	5.70083	3.1318899	44.1381	43.8910	7.117025	31.83611
2624	5.70305	3.1316245	43.9647	43.7185	7.116880	31.83112
2625	5.70506	3.1314702	43.7972	43.5520	7.116703	31.82756
2626	5.70662	3.1313529	43.6329	43.3886	7.116563	31.82484
2627	5.70793	3.1312048	43.4563	43.2131	7.116471	31.82203
2628	5.70904	3.1310567	43.2795	43.0372	7.116405	31.81940
2629	5.71020	3.1309086	43.1093	42.8680	7.116332	31.81672
2630	5.71141	3.1307296	42.9418	42.7015	7.116270	31.81365
2631	5.71267	3.1306493	42.7804	42.5409	7.116149	31.81164
2632	5.71363	3.1304025	42.6071	42.3686	7.116154	31.80804
2633	5.71494	3.1300756	42.4364	42.1989	7.116156	31.80321
2634	5.71650	3.1298041	42.2721	42.0356	7.116097	31.79877
2635	5.71836	3.1295820	42.1106	41.8749	7.115974	31.79459
2636	5.71977	3.1293907	41.9431	41.7084	7.115892	31.79119
2637	5.72124	3.1292118	41.7790	41.5452	7.115797	31.78788
2638	5.72255	3.1290576	41.6238	41.3909	7.115709	31.78498
2639	5.72345	3.1290143	41.4592	41.2273	7.115613	31.78372
2640	5.72436	3.1289094	41.2977	41.0668	7.115550	31.78177
2641	5.72507	3.1288847	41.1305	40.9004	7.115470	31.78090
2642	5.72557	3.1287921	40.9693	40.7402	7.115451	31.77946
2643	5.72592	3.1286687	40.8045	40.5763	7.115468	31.77782
2644	5.72633	3.1286132	40.6373	40.4101	7.115442	31.77690
2645	5.72668	3.1285268	40.4728	40.2466	7.115439	31.77568
2646	5.72708	3.1284836	40.2992	40.0739	7.115407	31.77489
2647	5.72743	3.1281690	40.1472	39.9227	7.115524	31.77110
2648	5.72839	3.1267692	39.9859	39.7624	7.116132	31.75454
2649	5.73182	3.1252217	39.8337	39.6110	7.116506	31.73400
2650	5.73701	3.1244326	39.6813	39.4596	7.116260	31.72032
2651	5.74241	3.1238284	39.5412	39.3202	7.115891	31.70853
2652	5.74745	3.1227005	39.3891	39.1689	7.115840	31.69120
2653	5.75335	3.1213324	39.2460	39.0267	7.115806	31.67037
2654	5.76051	3.1206237	39.0969	38.8784	7.115268	31.65576
2655	5.76782	3.1197057	38.9414	38.7238	7.114819	31.63867
2656	5.77494	3.1192559	38.7955	38.5787	7.114151	31.62703
2657	5.78104	3.1189539	38.6464	38.4305	7.113533	31.61799
2658	5.78584	3.1188122	38.5094	38.2943	7.112997	31.61197
2659	5.78967	3.1187566	38.3632	38.1489	7.112537	31.60783
2660	5.79245	3.1187319	38.2262	38.0127	7.112196	31.60502
2661	5.79442	3.1188119	38.0769	37.8643	7.111902	31.60414
2662	5.79573	3.1187564	37.9247	37.7129	7.111762	31.60237
2663	5.79679	3.1187317	37.7726	37.5616	7.111637	31.60117
2664	5.79810	3.1181034	37.6296	37.4194	7.111796	31.59296
2665	5.80270	3.1172103	37.4958	37.2864	7.111678	31.57872
2666	5.80860	3.1166190	37.3556	37.1470	7.111236	31.56664
2667	5.81355	3.1160709	37.2307	37.0228	7.110893	31.55593
2668	5.81790	3.1153196	37.0968	36.8897	7.110732	31.54352
2669	5.82295	3.1134787	36.9597	36.7533	7.111050	31.51825
2670	5.82911	3.1099829	36.8287	36.6232	7.112090	31.47342
2671	5.83361	3.1081617	36.6978	36.4930	7.112467	31.44890
2672	5.83613	3.1064517	36.5608	36.3567	7.113035	31.42748
2673	5.83947	3.1033769	36.4269	36.2236	7.114211	31.39004
2674	5.84204	3.1013483	36.2900	36.0875	7.114939	31.36501
2675	5.84119	3.0996396	36.1501	35.9483	7.115935	31.34676
2676	5.83881	3.0993692	36.0102	35.8092	7.116374	31.34601
2677	5.83709	3.0991972	35.8820	35.6817	7.116679	31.34574
2678	5.83583	3.0987547	35.7421	35.5426	7.117067	31.34202
2679	5.83421	3.0982508	35.6233	35.4246	7.117532	31.33794
2680	5.83158	3.0969053	35.4924	35.2944	7.118565	31.32539
2681	5.82557	3.0938466	35.3738	35.1764	7.120921	31.29680
2682	5.81481	3.0906847	35.2396	35.0431	7.123936	31.27145
2683	5.80063	3.0878308	35.1180	34.9221	7.127230	31.25270
2684	5.78574	3.0861313	34.9933	34.7981	7.130013	31.24752
2685	5.77473	3.0850762	34.8623	34.6678	7.131964	31.24595
2686	5.76732	3.0839353	34.7313	34.5376	7.133504	31.24010
2687	5.76202	3.0821507	34.6126	34.4196	7.135112	31.22506
2688	5.75839	3.0793733	34.4818	34.2895	7.137027	31.19737
2689	5.75642	3.0779451	34.3600	34.1684	7.138024	31.18324
2690	5.75547	3.0770564	34.2351	34.0442	7.138609	31.17423
2691	5.75668	3.0744400	34.1255	33.9352	7.139823	31.14386
2692	5.75884	3.0701649	33.9915	33.8020	7.141782	31.09404
2693	5.75910	3.0671834	33.8697	33.6808	7.143309	31.06048
2694	5.75663	3.0661980	33.7420	33.5539	7.144139	31.05178
2695	5.75350	3.0655554	33.6109	33.4236	7.144873	31.04753
2696	5.75088	3.0646559	33.4923	33.3056	7.145678	31.03992
2697	5.74785	3.0636830	33.3736	33.1875	7.146574	31.03187
2698	5.74452	3.0619272	33.2519	33.0665	7.147918	31.01532
2699	5.73983	3.0600679	33.1420	32.9573	7.149493	30.99886
2700	5.73333	3.0566746	33.0112	32.8273	7.152105	30.96689
2701	5.72229	3.0532765	32.8957	32.7124	7.155305	30.93902
2702	5.70778	3.0517798	32.7922	32.6095	7.157955	30.93561
2703	5.69554	3.0507413	32.6763	32.4943	7.160074	30.93526
2704	5.68729	3.0495870	32.5639	32.3825	7.161742	30.92996
2705	5.68205	3.0490312	32.4542	32.2733	7.162707	30.92858
2706	5.67858	3.0482251	32.3355	32.1554	7.163576	30.92279
2707	5.67621	3.0477610	32.2198	32.0403	7.164123	30.91981
2708	5.67430	3.0475412	32.1073	31.9285	7.164482	30.91915
2709	5.67324	3.0473274	31.9945	31.8163	7.164729	30.91778
2710	5.67243	3.0472358	31.8818	31.7042	7.164878	30.91754
2711	5.67228	3.0470099	31.7663	31.5893	7.165014	30.91520
2712	5.67248	3.0464726	31.6537	31.4774	7.165269	30.90904
2713	5.67490	3.0451356	31.5410	31.3654	7.165659	30.89189
2714	5.68109	3.0437011	31.4345	31.2594	7.165613	30.87018
2715	5.68885	3.0429443	31.3217	31.1473	7.165009	30.85465
2716	5.69484	3.0423889	31.2031	31.0293	7.164526	30.84300
2717	5.69892	3.0421081	31.0872	30.9141	7.164145	30.83617
2718	5.70159	3.0411135	30.9778	30.8053	7.164322	30.82264
2719	5.70441	3.0393992	30.8714	30.6995	7.164857	30.80091
2720	5.70834	3.0383134	30.7554	30.5842	7.164918	30.78521
2721	5.71312	3.0378742	30.6458	30.4752	7.164529	30.77598
2722	5.71690	3.0374045	30.5426	30.3725	7.164286	30.76732
2723	5.71897	3.0368373	30.4328	30.2634	7.164315	30.75914
2724	5.72023	3.0364044	30.3233	30.1545	7.164378	30.75319
2725	5.72093	3.0361726	30.2228	30.0546	7.164406	30.75000
2726	5.72184	3.0359470	30.1162	29.9486	7.164405	30.74670
2727	5.72265	3.0357152	30.0158	29.8487	7.164421	30.74342
2728	5.72381	3.0355506	29.9093	29.7428	7.164355	30.74057
2729	5.72502	3.0353676	29.7966	29.6308	7.164293	30.73747
2730	5.72602	3.0351542	29.6809	29.5157	7.164272	30.73422
2731	5.72683	3.0349103	29.5682	29.4037	7.164294	30.73081
2732	5.72754	3.0344896	29.4738	29.3098	7.164422	30.72550
2733	5.72844	3.0340202	29.3613	29.1980	7.164549	30.71947
2734	5.72985	3.0335812	29.2517	29.0889	7.164595	30.71333
2735	5.73142	3.0332155	29.1478	28.9856	7.164583	30.70786
2736	5.73378	3.0331545	29.0476	28.8860	7.164307	30.70507
2737	5.73646	3.0330386	28.9410	28.7800	7.164020	30.70139
2738	5.73933	3.0315454	28.8436	28.6831	7.164431	30.68212
2739	5.74422	3.0297661	28.7370	28.5772	7.164731	30.65782
2740	5.74962	3.0289435	28.6459	28.4865	7.164464	30.64377
2741	5.75365	3.0287364	28.5362	28.3774	7.164049	30.63784
2742	5.75612	3.0282733	28.4326	28.2744	7.163970	30.63047
2743	5.75763	3.0280723	28.3354	28.1778	7.163878	30.62689
2744	5.75859	3.0280966	28.2347	28.0776	7.163739	30.62634
2745	5.75900	3.0279747	28.1433	27.9868	7.163749	30.62465
2746	5.75940	3.0279625	28.0462	27.8903	7.163701	30.62420
2747	5.75960	3.0279138	27.9486	27.7932	7.163699	30.62351
2748	5.75960	3.0278711	27.8480	27.6931	7.163719	30.62308
2749	5.75965	3.0278528	27.7446	27.5903	7.163720	30.62288
2750	5.75960	3.0278467	27.6412	27.4875	7.163727	30.62291
2751	5.75960	3.0278527	27.5436	27.3905	7.163722	30.62302
2752	5.75965	3.0278466	27.4464	27.2938	7.163716	30.62295
2753	5.75965	3.0278222	27.3490	27.1970	7.163727	30.62272
2754	5.75965	3.0277857	27.2574	27.1059	7.163744	30.62236
2755	5.75965	3.0277917	27.1480	26.9971	7.163739	30.62248
2756	5.75965	3.0277856	27.0384	26.8881	7.163739	30.62246
2757	5.75985	3.0277917	26.9410	26.7913	7.163708	30.62239
2758	5.76011	3.0277855	26.8436	26.6944	7.163676	30.62214
2759	5.76066	3.0277611	26.7491	26.6005	7.163616	30.62141
2760	5.76167	3.0277306	26.6486	26.5005	7.163499	30.62020
2761	5.76298	3.0277001	26.5543	26.4067	7.163343	30.61871
2762	5.76444	3.0277306	26.4540	26.3070	7.163136	30.61777
2763	5.76651	3.0276696	26.3626	26.2161	7.162899	30.61525
2764	5.76878	3.0270727	26.2683	26.1224	7.162917	30.60657
2765	5.77156	3.0263052	26.1677	26.0223	7.162958	30.59553
2766	5.77529	3.0258545	26.0672	25.9224	7.162710	30.58715
2767	5.77902	3.0250628	25.9760	25.8316	7.162640	30.57497
2768	5.78331	3.0242225	25.8661	25.7224	7.162524	30.56175
2769	5.78922	3.0220005	25.7810	25.6378	7.162923	30.53164
2770	5.80073	3.0201745	25.6896	25.5469	7.162389	30.50090
2771	5.81739	3.0192859	25.5951	25.4529	7.160697	30.47599
2772	5.83421	3.0187564	25.4977	25.3561	7.158798	30.45495
2773	5.84907	3.0184824	25.4036	25.2625	7.157019	30.43856
2774	5.86252	3.0181538	25.3032	25.1626	7.155451	30.42283
2775	5.87556	3.0178555	25.2087	25.0687	7.153920	30.40782
2776	5.88765	3.0175208	25.1113	24.9718	7.152531	30.39327
2777	5.89868	3.0174537	25.0170	24.8780	7.151140	30.38265
2778	5.90845	3.0174901	24.9255	24.7870	7.149858	30.37433
2779	5.91822	3.0172466	24.8373	24.6994	7.148723	30.36289
2780	5.92743	3.0170275	24.7399	24.6025	7.147645	30.35223
2781	5.93640	3.0173681	24.6453	24.5084	7.146310	30.34802
2782	5.94612	3.0177694	24.5480	24.4117	7.144846	30.34380
2783	5.95565	3.0180918	24.4567	24.3209	7.143448	30.33889
2784	5.96365	3.0183958	24.3686	24.2333	7.142257	30.33513
2785	5.97029	3.0187547	24.2680	24.1333	7.141213	30.33321
2786	5.97562	3.0189128	24.1767	24.0424	7.140444	30.33024
2787	5.97942	3.0189614	24.0610	23.9274	7.139926	30.32743
2788	5.98221	3.0192352	23.9635	23.8305	7.139423	30.32802
2789	5.98505	3.0195394	23.8660	23.7335	7.138898	30.32889
2790	5.98855	3.0198070	23.7688	23.6368	7.138306	30.32878
2791	5.99240	3.0199652	23.6803	23.5488	7.137726	30.32712
2792	5.99559	3.0199895	23.5830	23.4521	7.137300	30.32457
2793	5.99818	3.0200259	23.4916	23.3612	7.136947	30.32271
2794	6.00021	3.0203241	23.3880	23.2582	7.136529	30.32424
2795	6.00305	3.0207378	23.3030	23.1737	7.135947	30.32633
2796	6.00701	3.0211090	23.2086	23.0798	7.135244	30.32695
2797	6.01137	3.0210237	23.1141	22.9858	7.134725	30.32214
2798	6.01558	3.0219549	23.0198	22.8920	7.133700	30.32874
2799	6.02421	3.0232270	22.9315	22.8042	7.131931	30.33517
2800	6.03751	3.0240974	22.8433	22.7165	7.129770	30.33295
2801	6.05386	3.0264537	22.7457	22.6195	7.126452	30.34447
2802	6.08063	3.0300230	22.6576	22.5319	7.121175	30.36008
2803	6.12446	3.0345142	22.5631	22.4379	7.113249	30.37060
2804	6.18286	3.0373488	22.4809	22.3562	7.104330	30.34977
2805	6.24046	3.0392511	22.3776	22.2535	7.096006	30.31940
2806	6.28962	3.0400802	22.2831	22.1595	7.089320	30.28480
2807	6.32641	3.0396162	22.1916	22.0685	7.084874	30.24704
2808	6.35254	3.0388168	22.0911	21.9685	7.081955	30.21511
2809	6.37055	3.0373651	21.9969	21.8749	7.080400	30.18325
2810	6.38206	3.0361637	21.8994	21.7780	7.079543	30.15991
2811	6.38882	3.0348466	21.8050	21.6841	7.079349	30.13952
2812	6.39210	3.0310494	21.7106	21.5902	7.080854	30.09501
2813	6.39512	3.0273575	21.6039	21.4841	7.082337	30.05189
2814	6.39911	3.0269189	21.5094	21.3902	7.082048	30.04361
2815	6.40756	3.0264498	21.4152	21.2965	7.081208	30.03107
2816	6.41975	3.0250004	21.3240	21.2057	7.080387	30.00449
2817	6.43846	3.0247262	21.2173	21.0997	7.078143	29.98509
2818	6.45502	3.0237397	21.1229	21.0058	7.076531	29.95979
2819	6.47189	3.0229115	21.0256	20.9090	7.074800	29.93597
2820	6.48774	3.0201908	20.9221	20.8061	7.074153	29.89237
2821	6.50566	3.0185051	20.8399	20.7244	7.072721	29.85832
2822	6.52640	3.0180729	20.7364	20.6215	7.070297	29.83552
2823	6.54521	3.0179328	20.6513	20.5368	7.067974	29.81762
2824	6.55975	3.0175676	20.5568	20.4428	7.066306	29.80100
2825	6.57065	3.0166185	20.4685	20.3550	7.065396	29.78119
2826	6.58140	3.0159433	20.3679	20.2550	7.064366	29.76452
2827	6.59112	3.0157303	20.2798	20.1674	7.063236	29.75378
2828	6.60141	3.0156693	20.1883	20.0764	7.061957	29.74421
2829	6.61083	3.0155354	20.0878	19.9765	7.060826	29.73461
2830	6.61768	3.0153407	19.9872	19.8764	7.060051	29.72659
2831	6.62272	3.0150730	19.8899	19.7797	7.059543	29.71934
2832	6.62828	3.0149148	19.7896	19.6800	7.058914	29.71283
2833	6.63353	3.0144222	19.6951	19.5859	7.058491	29.70295
2834	6.63812	3.0135647	19.6038	19.4952	7.058336	29.68969
2835	6.64172	3.0124460	19.4972	19.3892	7.058435	29.67444
2836	6.64384	3.0111997	19.3787	19.2713	7.058788	29.65910
2837	6.64363	3.0103731	19.2719	19.1652	7.059225	29.65033
2838	6.64466	3.0103122	19.1745	19.0683	7.059122	29.64882
2839	6.64868	3.0102818	19.0711	18.9654	7.058625	29.64506
2840	6.65342	3.0103425	18.9736	18.8685	7.057990	29.64166
2841	6.65769	3.0102816	18.8791	18.7745	7.057476	29.63734
2842	6.66182	3.0094672	18.7908	18.6867	7.057357	29.62496
2843	6.66336	3.0077475	18.6877	18.5842	7.058017	29.60497
2844	6.66213	3.0074862	18.5991	18.4961	7.058303	29.60323
2845	6.66496	3.0066660	18.4988	18.3963	7.058350	29.59191
2846	6.67326	3.0047525	18.4073	18.3054	7.058249	29.56399
2847	6.68310	3.0036835	18.3099	18.2085	7.057529	29.54393
2848	6.69192	3.0031915	18.2188	18.1179	7.056651	29.53102
2849	6.69930	3.0030760	18.1243	18.0239	7.055770	29.52346
2850	6.70451	3.0026326	18.0267	17.9269	7.055326	29.51420
2851	6.70848	3.0025051	17.9292	17.8300	7.054883	29.50944
2852	6.71106	3.0024018	17.8349	17.7362	7.054605	29.50614
2853	6.71436	3.0024442	17.7314	17.6332	7.054162	29.50380
2854	6.71921	3.0025049	17.6371	17.5395	7.053514	29.50033
2855	6.72644	3.0023773	17.5429	17.4458	7.052657	29.49277
2856	6.73495	3.0024136	17.4420	17.3454	7.051556	29.48589
2857	6.74146	3.0025471	17.3541	17.2581	7.050661	29.48178
2858	6.74626	3.0026806	17.2503	17.1548	7.049983	29.47915
2859	6.75024	3.0028930	17.1500	17.0550	7.049371	29.47808
2860	6.75468	3.0020915	17.0495	16.9551	7.049203	29.46562
2861	6.75886	3.0012414	16.9581	16.8642	7.049093	29.45285
2862	6.76253	3.0009561	16.8637	16.7703	7.048767	29.44665
2863	6.76599	3.0009135	16.7634	16.6706	7.048347	29.44327
2864	6.76868	3.0008952	16.6597	16.5675	7.048013	29.44081
2865	6.77069	3.0009437	16.5564	16.4648	7.047731	29.43965
2866	6.77379	3.0007616	16.4558	16.3647	7.047425	29.43506
2867	6.78263	3.0003305	16.3584	16.2679	7.046516	29.42286
2868	6.79436	2.9999843	16.2547	16.1647	7.045196	29.40910
2869	6.80532	2.9998749	16.1515	16.0621	7.043858	29.39858
2870	6.81370	2.9993528	16.0447	15.9560	7.043052	29.38580
2871	6.82032	2.9991160	15.9412	15.8530	7.042327	29.37762
2872	6.82632	2.9987700	15.8316	15.7440	7.041735	29.36879
2873	6.83259	2.9983997	15.7341	15.6471	7.041122	29.35948
2874	6.83823	2.9982600	15.6276	15.5412	7.040474	29.35320
2875	6.84294	2.9980961	15.5151	15.4293	7.039956	29.34745
2876	6.84806	2.9980050	15.4174	15.3322	7.039349	29.34213
2877	6.85453	2.9981991	15.3111	15.2264	7.038431	29.33875
2878	6.86805	2.9989333	15.2015	15.1175	7.036353	29.33520
2879	6.89504	2.9993639	15.0888	15.0053	7.032720	29.31687
2880	6.92381	3.0000737	14.9790	14.8962	7.028727	29.30006
2881	6.95136	3.0006440	14.8667	14.7845	7.024961	29.28281
2882	6.97451	3.0010384	14.7507	14.6691	7.021839	29.26743
2883	6.99180	3.0016574	14.6384	14.5575	7.019349	29.25945
2884	7.00879	3.0031934	14.5286	14.4482	7.016450	29.26159
2885	7.03270	3.0045717	14.3947	14.3151	7.012757	29.25618
2886	7.06157	3.0062174	14.2760	14.1971	7.008313	29.24942
2887	7.09249	3.0068367	14.1571	14.0788	7.004116	29.22991
2888	7.11749	3.0078085	14.0414	13.9638	7.000496	29.21922
2889	7.13782	3.0085435	13.9258	13.8488	6.997581	29.20995
2890	7.15367	3.0086831	13.8101	13.7338	6.995520	29.19809
2891	7.16400	3.0085432	13.6881	13.6125	6.994289	29.18792
2892	7.17172	3.0086221	13.5725	13.4975	6.993279	29.18229
2893	7.18059	3.0085004	13.4415	13.3672	6.992222	29.17355
2894	7.19223	3.0076557	13.3168	13.2433	6.991169	29.15474
2895	7.20956	3.0071816	13.1950	13.1221	6.989222	29.13510
2896	7.22596	3.0071146	13.0642	12.9920	6.987194	29.12062
2897	7.24023	3.0067256	12.9454	12.8739	6.985592	29.10451
2898	7.26062	3.0068590	12.8174	12.7466	6.982969	29.08884
2899	7.28933	3.0076910	12.6834	12.6133	6.978968	29.07365
2900	7.32666	3.0091307	12.5494	12.4801	6.973601	29.05774
2901	7.37529	3.0122726	12.4216	12.3530	6.966011	29.05050
2902	7.44440	3.0174105	12.2968	12.2289	6.954930	29.04734
2903	7.55290	3.0249866	12.1812	12.1139	6.937835	29.03711
2904	7.70930	3.0279509	12.0562	11.9897	6.917081	28.93828
2905	7.87628	3.0284792	11.9345	11.8686	6.896261	28.80577
2906	8.03133	3.0279172	11.8067	11.7415	6.877493	28.67262
2907	8.15661	3.0267587	11.6848	11.6203	6.862701	28.55838
2908	8.25509	3.0266724	11.5571	11.4933	6.850722	28.47762
2909	8.31688	3.0267266	11.4230	11.3600	6.843170	28.42828
2910	8.36172	3.0265190	11.2921	11.2298	6.837808	28.39002
2911	8.39693	3.0262385	11.1551	11.0935	6.833655	28.35882
2912	8.42152	3.0249473	11.0120	10.9512	6.831252	28.32576
2913	8.44225	3.0246609	10.8658	10.8058	6.828864	28.30622
2914	8.45727	3.0241614	10.7227	10.6635	6.827264	28.28907
2915	8.46912	3.0237960	10.5796	10.5212	6.825989	28.27586
2916	8.47855	3.0241429	10.4304	10.3729	6.824686	28.27195
2917	8.48303	3.0236131	10.2812	10.2244	6.824380	28.26296
2918	8.48621	3.0234852	10.1352	10.0793	6.824050	28.25915
2919	8.49003	3.0218659	9.9889	9.9338	6.824315	28.23944
2920	8.49898	3.0207094	9.8368	9.7825	6.823750	28.22041
2921	8.51160	3.0205023	9.6966	9.6431	6.822310	28.20825
2922	8.52347	3.0204535	9.5473	9.4946	6.820891	28.19833
2923	8.53513	3.0189930	9.3981	9.3463	6.820134	28.17404
2924	8.56347	3.0168816	9.2429	9.1919	6.817647	28.12978
2925	8.61390	3.0158593	9.0937	9.0436	6.811996	28.07925
2926	8.66390	3.0151654	8.9323	8.8830	6.806254	28.03256
2927	8.70518	3.0151649	8.7741	8.7257	6.801261	27.99997
2928	8.74010	3.0152558	8.6035	8.5561	6.796999	27.97340
2929	8.77169	3.0154196	8.4329	8.3864	6.793111	27.95024
2930	8.79873	3.0156443	8.2655	8.2199	6.789747	27.93131
2931	8.82412	3.0159664	8.0888	8.0442	6.786542	27.91470
2932	8.84538	3.0160087	7.9003	7.8567	6.783959	27.89850
2933	8.85882	3.0159355	7.7205	7.6779	6.782371	27.88727
2934	8.86807	3.0163672	7.5411	7.4995	6.781063	27.88449
2935	8.88108	3.0166225	7.3552	7.3146	6.779382	27.87696
2936	8.89714	3.0168778	7.1543	7.1149	6.777334	27.86704
2937	8.91365	3.0172121	6.9655	6.9271	6.775198	27.85759
2938	8.93175	3.0173031	6.7828	6.7454	6.772981	27.84442
2939	8.94576	3.0172421	6.5849	6.5486	6.771322	27.83291
2940	8.95427	3.0175035	6.3898	6.3546	6.770182	27.82899
2941	8.96562	3.0179657	6.1890	6.1549	6.768612	27.82490
2942	8.98122	3.0181906	5.9943	5.9612	6.766637	27.81507
2943	8.99455	3.0181478	5.7993	5.7674	6.765055	27.80430
2944	9.00345	3.0181903	5.5952	5.5644	6.763966	27.79787
2945	9.01055	3.0184152	5.3912	5.3615	6.763012	27.79469
2946	9.02044	3.0188775	5.1782	5.1497	6.761621	27.79176
2947	9.03683	3.0191389	4.9802	4.9528	6.759538	27.78170
2948	9.05329	3.0196802	4.7792	4.7529	6.757327	27.77445
2949	9.07949	3.0201302	4.5602	4.5351	6.753991	27.75869
2950	9.11398	3.0203793	4.3591	4.3351	6.749755	27.73446
2951	9.14061	3.0202146	4.1520	4.1292	6.746642	27.71219
2952	9.15398	3.0203483	3.9419	3.9202	6.744983	27.70324
2953	9.16539	3.0207011	3.7287	3.7082	6.743464	27.69805
2954	9.18591	3.0217051	3.5187	3.4994	6.740575	27.69238
2955	9.22395	3.0229037	3.3025	3.2843	6.735515	27.67510
2956	9.28287	3.0237858	3.0956	3.0785	6.728115	27.63851
2957	9.35666	3.0248505	2.8762	2.8604	6.718884	27.59241
2958	9.43510	3.0262319	2.6631	2.6485	6.708984	27.54604
2959	9.52118	3.0265112	2.4652	2.4517	6.698677	27.48292
2960	9.58887	3.0278991	2.2734	2.2609	6.690089	27.44516
2961	9.65513	3.0291106	2.1027	2.0912	6.681762	27.40682
2962	9.71538	3.0297192	1.9201	1.9096	6.674413	27.36714
2963	9.76096	3.0311689	1.7374	1.7279	6.668442	27.34706
2964	9.80549	3.0312720	1.5640	1.5554	6.663173	27.31441
2965	9.83829	3.0318932	1.4054	1.3977	6.659064	27.29583
2966	9.86296	3.0325633	1.2593	1.2524	6.655891	27.28389
2967	9.88742	3.0331969	1.1162	1.1100	6.652760	27.27176
2968	9.90799	3.0325871	0.9914	0.9859	6.650608	27.25024
2969	9.91459	3.0321056	0.8576	0.8529	6.650037	27.24054
2970	9.90995	3.0311549	0.7295	0.7255	6.650976	27.23466
2971	9.89731	3.0309539	0.5924	0.5891	6.652536	27.24224
2972	9.89167	3.0326176	0.4676	0.4650	6.652496	27.26305
2973	9.91051	3.0338608	0.3459	0.3440	6.649770	27.26122
2974	9.94144	3.0337081	0.2240	0.2228	6.646218	27.23644
2975	9.96808	3.0322876	0.1388	0.1380	6.643699	27.20235
2976	9.98320	3.0298927	0.1357	0.1350	6.642934	27.16728
2977	9.98325	3.0292835	0.1326	0.1319	6.643182	27.16120
2978	9.96153	3.0284857	0.1358	0.1351	6.646054	27.16962
2979	9.93606	3.0268353	0.1357	0.1350	6.649721	27.17240
2980	9.91146	3.0258185	0.1388	0.1380	6.653027	27.18082
2981	9.87675	3.0256544	0.1297	0.1290	6.657160	27.20531
2982	9.84660	3.0247596	0.1388	0.1380	6.661071	27.21914
2983	9.82317	3.0234813	0.1297	0.1290	6.664359	27.22412
2984	9.79913	2.7214778	0.1357	0.1350	6.794870	24.25960
2985	9.76787	0.5777812	0.1296	0.1289	7.708704	4.53633
2986	9.73408	0.5648490	0.1326	0.1319	7.719949	4.43201
2987	9.71010	0.5951405	0.1356	0.1348	7.711643	4.68972
2988	9.69364	0.5375362	0.1356	0.1348	7.738314	4.20810
2989	9.68224	0.4907314	0.1388	0.1380	7.759568	3.81935
2990	9.67018	0.4923969	0.1388	0.1380	7.761026	3.83446
2991	9.65346	0.5363732	0.1448	0.1440	7.745884	4.20305
2992	9.63614	0.5104564	0.1327	0.1320	7.759640	3.98847
2993	9.61794	0.5118957	0.1295	0.1288	7.762277	4.00249
2994	9.59814	0.5110464	0.1264	0.1257	7.766144	3.99760
2995	9.57757	0.4558699	0.1355	0.1348	7.792547	3.54098
2996	9.55657	0.4069269	0.1265	0.1258	7.816386	3.13943
2997	9.53480	0.3694393	0.1264	0.1257	7.835619	2.83452
2998	9.51670	0.3403972	0.1355	0.1348	7.850714	2.59976
2999	9.50148	0.3474563	0.1355	0.1348	7.850621	2.65815
3000	9.49053	0.3778938	0.1323	0.1316	7.840207	2.90708
3001	9.47859	0.3983507	0.1325	0.1317	7.833997	3.07572
3002	9.46952	0.3910089	0.1385	0.1378	7.838652	3.01622
3003	9.46880	0.3489749	0.1354	0.1347	7.855962	2.67291
3004	9.46969	0.3119359	0.1291	0.1284	7.870841	2.37285
3005	9.47074	0.2922677	0.1323	0.1316	7.878593	2.21453
3006	9.47157	0.2740123	0.1323	0.1316	7.885787	2.06829
3007	9.47323	0.2593553	0.1353	0.1345	7.891359	1.95133
3008	9.47400	0.2454028	0.1321	0.1314	7.896794	1.84047
3009	9.47411	0.2270345	0.1322	0.1315	7.904087	1.69526
3010	9.47455	0.1988687	0.1382	0.1375	7.915154	1.47416
3011	9.47461	0.1705048	0.1353	0.1346	7.926279	1.25364
3012	9.47511	0.1567604	0.1321	0.1313	7.931546	1.14759
3013	9.47605	0.1456773	0.1349	0.1341	7.935673	1.06249
3014	9.47754	0.1440499	0.1320	0.1312	7.936024	1.04999
3015	9.47970	0.2048420	0.1319	0.1312	7.911841	1.52066
3016	9.48174	0.2795760	0.1290	0.1283	7.881679	2.11218
3017	9.48312	0.3023358	0.1290	0.1283	7.872258	2.29465
3018	9.48340	0.3028150	0.1290	0.1283	7.872014	2.29849
3019	9.48395	0.3182083	0.1225	0.1218	7.865689	2.42251
3020	9.48379	0.3417523	0.1318	0.1311	7.856167	2.61313
3021	9.48340	0.3374376	0.1317	0.1310	7.857992	2.57815
3022	9.48268	0.3153391	0.1318	0.1311	7.867083	2.39944
3023	9.48157	0.2928706	0.1318	0.1311	7.876360	2.21870
3024	9.47981	0.2728047	0.1288	0.1281	7.884755	2.05817
3025	9.47997	0.2557064	0.1378	0.1371	7.891575	1.92195
3026	9.48014	0.2422075	0.1347	0.1340	7.896934	1.81485
3027	9.48003	0.2300476	0.1317	0.1309	7.901794	1.71875
3028	9.48152	0.2165333	0.1284	0.1277	7.906880	1.61227
3029	9.48439	0.2052699	0.1317	0.1310	7.910800	1.52382
3030	9.48600	0.1944526	0.1285	0.1278	7.914765	1.43923
3031	9.48699	0.1848249	0.1284	0.1277	7.918363	1.36423
3032	9.48688	0.1774728	0.1345	0.1338	7.921265	1.30716
3033	9.48804	0.1704749	0.1254	0.1247	7.923785	1.25294
3034	9.49280	0.1710564	0.1345	0.1337	7.922671	1.25727
3035	9.49800	0.1653598	0.1283	0.1276	7.923924	1.21310
3036	9.50209	0.1652304	0.1313	0.1306	7.923211	1.21196
3037	9.50630	0.1662452	0.1255	0.1248	7.922032	1.21965
3038	9.50840	0.1602289	0.1253	0.1246	7.923981	1.17322
3039	9.50906	0.1542142	0.1283	0.1276	7.926193	1.12696
3040	9.50934	0.1441057	0.1252	0.1246	7.930055	1.04950
3041	9.50901	0.1326230	0.1252	0.1245	7.934545	0.96194
3042	9.50978	0.1205155	0.1342	0.1335	7.939045	0.87008
3043	9.51343	0.1130297	0.1312	0.1305	7.941220	0.81350
3044	9.51548	0.1212869	0.1310	0.1303	7.937682	0.87578
3045	9.51454	0.2696380	0.1312	0.1305	7.879631	2.03095
3046	9.51277	0.3828936	0.1250	0.1243	7.834129	2.94617
3047	9.51122	0.3627360	0.1281	0.1274	7.842632	2.78172
3048	9.51106	0.4565898	0.1280	0.1273	7.804179	3.55349
3049	9.51100	0.3715398	0.1310	0.1303	7.839084	2.85353
3050	9.50989	0.3115779	0.1249	0.1242	7.863621	2.36732
3051	9.51200	0.2695620	0.1277	0.1270	7.880130	2.03048
3052	9.51626	0.2437567	0.1248	0.1241	7.889645	1.82530
3053	9.51897	0.2229116	0.1309	0.1302	7.897417	1.66072
3054	9.51930	0.1939594	0.1247	0.1240	7.908771	1.43407
3055	9.51880	0.1776227	0.1308	0.1301	7.915263	1.30717
3056	9.52135	0.1585485	0.1216	0.1210	7.922219	1.15988
3057	9.52688	0.1431494	0.1216	0.1210	7.927146	1.04169
3058	9.52888	0.1310404	0.1275	0.1268	7.931435	0.94939
3059	9.53032	0.1205708	0.1277	0.1269	7.935177	0.87001
3060	9.53187	0.1114570	0.1305	0.1298	7.938363	0.80125
3061	9.53530	0.1047694	0.1305	0.1298	7.940260	0.75095
3062	9.54277	0.0997809	0.1274	0.1267	7.940747	0.71347
3063	9.55025	0.0963806	0.1243	0.1236	7.940628	0.68794
3064	9.55889	0.0936673	0.1305	0.1297	7.940029	0.66757
3065	9.57225	0.0914777	0.1273	0.1266	7.938347	0.65105
