Scan Count	Temperature [ITS-90, deg C]	Conductivity [S/m]	Pressure, Strain Gauge [db]	Depth [salt water, m]	Oxygen Saturation, Weiss [ml/l]	Salinity, Practical [PSU]
1	22.06733	-0.0000337	-0.1577	-0.1568	6.097857	0.00000
2	22.06741	-0.0000399	-0.1608	-0.1599	6.097847	0.00000
3	22.06709	-0.0000306	-0.1608	-0.1599	6.097885	0.00000
4	22.06701	-0.0000337	-0.1577	-0.1569	6.097894	0.00000
5	22.06678	-0.0000306	-0.1577	-0.1568	6.097922	0.00000
6	22.06622	-0.0000337	-0.1608	-0.1599	6.097988	0.00000
7	22.06566	-0.0000306	-0.1577	-0.1569	6.098053	0.00000
8	22.06495	-0.0000306	-0.1577	-0.1569	6.098138	0.00000
9	22.06448	-0.0000337	-0.1638	-0.1629	6.098194	0.00000
10	22.06368	-0.0000306	-0.1638	-0.1629	6.098288	0.00000
11	22.06352	-0.0000245	-0.1669	-0.1659	6.098306	0.00000
12	22.06368	-0.0000399	-0.1577	-0.1569	6.098288	0.00000
13	22.06424	-0.0000306	-0.1547	-0.1538	6.098222	0.00000
14	22.06360	-0.0000399	-0.1608	-0.1599	6.098297	0.00000
15	22.06376	-0.0000306	-0.1577	-0.1569	6.098278	0.00000
16	22.06352	-0.0000337	-0.1638	-0.1629	6.098306	0.00000
17	22.06273	-0.0000399	-0.1547	-0.1538	6.098400	0.00000
18	22.06321	-0.0000306	-0.1578	-0.1569	6.098344	0.00000
19	22.06321	-0.0000337	-0.1638	-0.1629	6.098344	0.00000
20	22.06281	-0.0000399	-0.1547	-0.1538	6.098391	0.00000
21	22.06336	-0.0000337	-0.1577	-0.1569	6.098325	0.00000
22	22.06321	-0.0000306	-0.1577	-0.1569	6.098344	0.00000
23	22.06281	-0.0000399	-0.1608	-0.1599	6.098391	0.00000
24	22.06305	-0.0000337	-0.1578	-0.1569	6.098362	0.00000
25	22.06273	-0.0000399	-0.1608	-0.1599	6.098400	0.00000
26	22.06273	-0.0000399	-0.1547	-0.1539	6.098400	0.00000
27	22.06273	-0.0000337	-0.1577	-0.1569	6.098400	0.00000
28	22.06273	-0.0000399	-0.1608	-0.1599	6.098400	0.00000
29	22.06241	-0.0000399	-0.1547	-0.1539	6.098437	0.00000
30	22.06313	-0.0000306	-0.1608	-0.1599	6.098353	0.00000
31	22.06194	-0.0000399	-0.1547	-0.1538	6.098494	0.00000
32	22.06051	-0.0000337	-0.1547	-0.1539	6.098662	0.00000
33	22.05583	-0.0000399	-0.1547	-0.1539	6.099215	0.00000
34	22.05290	-0.0000337	-0.1608	-0.1599	6.099561	0.00000
35	22.05171	-0.0000306	-0.1577	-0.1569	6.099702	0.00000
36	22.05131	-0.0000306	-0.1608	-0.1599	6.099748	0.00000
37	22.05155	-0.0000337	-0.1578	-0.1569	6.099720	0.00000
38	22.05131	-0.0000306	-0.1608	-0.1599	6.099748	0.00000
39	22.05068	-0.0000337	-0.1578	-0.1569	6.099823	0.00000
40	22.05068	-0.0000306	-0.1577	-0.1569	6.099823	0.00000
41	22.04980	-0.0000399	-0.1608	-0.1599	6.099926	0.00000
42	22.04941	-0.0000399	-0.1517	-0.1508	6.099973	0.00000
43	22.04957	-0.0000399	-0.1547	-0.1539	6.099954	0.00000
44	22.04980	-0.0000399	-0.1577	-0.1569	6.099926	0.00000
45	22.04957	-0.0000399	-0.1547	-0.1539	6.099954	0.00000
46	22.04957	-0.0000399	-0.1608	-0.1599	6.099954	0.00000
47	22.04988	-0.0000337	-0.1578	-0.1569	6.099917	0.00000
48	22.04980	-0.0000306	-0.1638	-0.1629	6.099926	0.00000
49	22.05004	-0.0000399	-0.1547	-0.1539	6.099898	0.00000
50	22.04925	-0.0000399	-0.1547	-0.1539	6.099992	0.00000
51	22.04917	-0.0000306	-0.1578	-0.1569	6.100001	0.00000
52	22.04885	-0.0000337	-0.1608	-0.1599	6.100039	0.00000
53	22.04814	-0.0000399	-0.1547	-0.1538	6.100123	0.00000
54	22.04758	-0.0000306	-0.1547	-0.1538	6.100189	0.00000
55	22.04655	-0.0000399	-0.1577	-0.1569	6.100310	0.00000
56	22.04544	-0.0000306	-0.1577	-0.1569	6.100441	0.00000
57	22.04441	-0.0000399	-0.1578	-0.1569	6.100563	0.00000
58	22.04402	-0.0000399	-0.1547	-0.1539	6.100610	0.00000
59	22.04417	-0.0000399	-0.1517	-0.1508	6.100591	0.00000
60	22.04299	-0.0000399	-0.1577	-0.1569	6.100732	0.00000
61	22.04180	-0.0000399	-0.1608	-0.1599	6.100872	0.00000
62	22.04132	-0.0000337	-0.1578	-0.1569	6.100928	0.00000
63	22.04053	-0.0000306	-0.1577	-0.1569	6.101022	0.00000
64	22.04037	-0.0000399	-0.1578	-0.1569	6.101041	0.00000
65	22.03981	-0.0000337	-0.1547	-0.1539	6.101106	0.00000
66	22.04021	-0.0000399	-0.1547	-0.1539	6.101059	0.00000
67	22.04053	-0.0000337	-0.1547	-0.1539	6.101022	0.00000
68	22.04069	-0.0000460	-0.1638	-0.1629	6.101003	0.00000
69	22.04029	-0.0000399	-0.1547	-0.1539	6.101050	0.00000
70	22.03918	-0.0000337	-0.1608	-0.1599	6.101181	0.00000
71	22.03791	-0.0000306	-0.1608	-0.1599	6.101331	0.00000
72	22.03767	-0.0000399	-0.1577	-0.1569	6.101359	0.00000
73	22.03704	-0.0000337	-0.1517	-0.1508	6.101434	0.00000
74	22.03696	-0.0000306	-0.1578	-0.1569	6.101443	0.00000
75	22.03704	-0.0000337	-0.1578	-0.1569	6.101434	0.00000
76	22.03664	-0.0000399	-0.1608	-0.1599	6.101481	0.00000
77	22.03649	-0.0000306	-0.1577	-0.1569	6.101500	0.00000
78	22.03617	-0.0000337	-0.1608	-0.1599	6.101537	0.00000
79	22.03625	-0.0000399	-0.1608	-0.1599	6.101528	0.00000
80	22.03585	-0.0000399	-0.1638	-0.1629	6.101575	0.00000
81	22.03546	-0.0000399	-0.1578	-0.1569	6.101621	0.00000
82	22.03546	-0.0000399	-0.1547	-0.1539	6.101621	0.00000
83	22.03514	-0.0000399	-0.1608	-0.1599	6.101659	0.00000
84	22.03506	-0.0000306	-0.1547	-0.1539	6.101668	0.00000
85	22.03419	-0.0000337	-0.1608	-0.1599	6.101771	0.00000
86	22.03276	-0.0000399	-0.1578	-0.1569	6.101940	0.00000
87	22.03141	-0.0000306	-0.1608	-0.1599	6.102099	0.00000
88	22.03110	-0.0000337	-0.1517	-0.1508	6.102136	0.00000
89	22.02983	-0.0000306	-0.1638	-0.1629	6.102286	0.00000
90	22.02856	-0.0000337	-0.1547	-0.1539	6.102436	0.00000
91	22.02816	-0.0000306	-0.1547	-0.1539	6.102483	0.00000
92	22.02777	-0.0000306	-0.1486	-0.1478	6.102530	0.00000
93	22.02713	-0.0000399	-0.1638	-0.1629	6.102605	0.00000
94	22.02595	-0.0000399	-0.1517	-0.1508	6.102745	0.00000
95	22.02404	-0.0000306	-0.1517	-0.1508	6.102970	0.00000
96	22.02135	-0.0000245	-0.1517	-0.1508	6.103288	0.00000
97	22.01977	-0.0000399	-0.1486	-0.1478	6.103476	0.00000
98	21.31962	0.0270815	-0.1060	-0.1055	6.182181	0.14074
99	18.99944	1.1839453	-0.0208	-0.0207	6.188757	7.73765
100	17.18802	2.4059133	0.0887	0.0882	6.054300	17.47334
101	15.93993	2.4379990	0.2226	0.2213	6.179382	18.28700
102	15.05975	2.4638628	0.3503	0.3484	6.268722	18.91559
103	14.47483	2.4876837	0.4812	0.4785	6.326839	19.40402
104	14.08331	2.5067860	0.5938	0.5905	6.365020	19.76574
105	13.84653	2.5193426	0.7063	0.7024	6.387881	19.99651
106	13.71817	2.5267095	0.8098	0.8053	6.400115	20.12759
107	13.65032	2.5442638	0.8919	0.8870	6.401851	20.31685
108	13.62337	2.5554718	0.9254	0.9203	6.401062	20.42939
109	13.68714	2.5576291	0.9254	0.9203	6.392988	20.41442
110	13.85723	2.5735078	0.9254	0.9203	6.368065	20.46297
111	13.99928	2.5895026	0.9315	0.9263	6.346464	20.52694
112	14.07962	2.5959390	0.9315	0.9263	6.335195	20.54024
113	14.12497	2.5993120	0.9284	0.9233	6.328940	20.54546
114	14.15299	2.6057058	0.9193	0.9142	6.323623	20.58605
115	14.15349	2.6106867	0.9193	0.9143	6.321884	20.62899
116	14.15174	2.6141073	0.9254	0.9203	6.320925	20.65961
117	14.13268	2.6121345	0.9254	0.9203	6.323734	20.65265
118	14.09001	2.6014084	0.9315	0.9263	6.332168	20.58223
119	14.02014	2.5890194	0.9315	0.9264	6.344267	20.51167
120	13.93308	2.5801252	0.9345	0.9294	6.357170	20.48043
121	13.83746	2.5741621	0.9375	0.9324	6.370094	20.47918
122	13.76188	2.5749660	0.9345	0.9294	6.378441	20.52643
123	13.71240	2.5800467	0.9406	0.9354	6.382339	20.59735
124	13.67439	2.5850907	0.9345	0.9294	6.384939	20.66197
125	13.63919	2.5836545	0.9345	0.9294	6.389463	20.66828
126	13.60310	2.5764423	0.9345	0.9294	6.396102	20.62433
127	13.57266	2.5726956	0.9315	0.9264	6.400899	20.60774
128	13.54910	2.5720131	0.9315	0.9263	6.403845	20.61439
129	13.52955	2.5733843	0.9345	0.9294	6.405614	20.63696
130	13.51544	2.5762823	0.9315	0.9263	6.406225	20.67008
131	13.50263	2.5784063	0.9315	0.9264	6.406956	20.69570
132	13.48896	2.5783260	0.9315	0.9264	6.408556	20.70237
133	13.47634	2.5780850	0.9406	0.9354	6.410093	20.70706
134	13.46483	2.5772126	0.9376	0.9324	6.411722	20.70558
135	13.45400	2.5767420	0.9467	0.9415	6.413134	20.70728
136	13.44552	2.5773849	0.9436	0.9385	6.413886	20.71754
137	13.44091	2.5795953	0.9406	0.9354	6.413642	20.73954
138	13.43918	2.5821740	0.9406	0.9354	6.412937	20.76324
139	13.43820	2.5841101	0.9406	0.9354	6.412371	20.78086
140	13.43525	2.5844031	0.9345	0.9293	6.412608	20.78505
141	13.42935	2.5805831	0.9315	0.9264	6.414627	20.75453
142	13.42197	2.5780568	0.9315	0.9263	6.416363	20.73622
143	13.41571	2.5785563	0.9376	0.9324	6.416910	20.74402
144	13.41319	2.5805603	0.9345	0.9294	6.416497	20.76308
145	13.41423	2.5831450	0.9345	0.9294	6.415469	20.78535
146	13.41841	2.5868515	0.9406	0.9354	6.413687	20.81581
147	13.42345	2.5898582	0.9436	0.9384	6.412052	20.83963
148	13.42701	2.5913189	0.9497	0.9445	6.411130	20.85059
149	13.42677	2.5900594	0.9436	0.9384	6.411600	20.83960
150	13.42068	2.5866732	0.9406	0.9354	6.413488	20.81300
151	13.41226	2.5847079	0.9376	0.9324	6.415147	20.80022
152	13.40551	2.5849665	0.9406	0.9354	6.415835	20.80617
153	13.40102	2.5867022	0.9345	0.9294	6.415741	20.82395
154	13.39777	2.5887774	0.9315	0.9264	6.415387	20.84406
155	13.39470	2.5913364	0.9375	0.9324	6.414841	20.86836
156	13.39304	2.5941552	0.9345	0.9294	6.414042	20.89419
157	13.39126	2.5959966	0.9375	0.9324	6.413599	20.91144
158	13.38856	2.5967276	0.9345	0.9294	6.413653	20.91938
159	13.38438	2.5970557	0.9376	0.9324	6.414018	20.92457
160	13.38027	2.5982128	0.9467	0.9415	6.414084	20.93705
161	13.37591	2.6002569	0.9467	0.9415	6.413867	20.95752
162	13.37456	2.6032923	0.9436	0.9384	6.412954	20.98512
163	13.37874	2.6048537	0.9467	0.9415	6.411926	20.99665
164	13.38457	2.6074817	0.9406	0.9354	6.410332	21.01671
165	13.38665	2.6093842	0.9436	0.9385	6.409424	21.03240
166	13.38463	2.6088884	0.9376	0.9324	6.409830	21.02913
167	13.37978	2.6066921	0.9406	0.9354	6.411159	21.01235
168	13.37530	2.6062426	0.9376	0.9324	6.411832	21.01084
169	13.37241	2.6069342	0.9284	0.9233	6.411920	21.01854
170	13.37168	2.6088424	0.9376	0.9324	6.411334	21.03584
171	13.37278	2.6109182	0.9376	0.9324	6.410477	21.05361
172	13.37604	2.6142927	0.9406	0.9355	6.408917	21.08170
173	13.38266	2.6204863	0.9467	0.9415	6.405979	21.13289
174	13.39402	2.6356665	0.9467	0.9415	6.399344	21.26107
175	13.41497	2.6515569	0.9437	0.9385	6.391375	21.39020
176	13.44693	2.6632924	0.9437	0.9385	6.383624	21.47629
177	13.47548	2.6676733	0.9437	0.9385	6.378849	21.49909
178	13.48686	2.6711264	0.9345	0.9294	6.376350	21.52327
179	13.50953	2.6752909	0.9406	0.9355	6.372328	21.54740
180	13.60909	2.6778388	0.9285	0.9234	6.360185	21.51406
181	13.74129	2.6789669	0.9345	0.9294	6.344902	21.45012
182	13.84486	2.6804214	0.9345	0.9294	6.332774	21.40528
183	13.92092	2.6822900	0.9406	0.9355	6.323617	21.37947
184	13.97424	2.6838388	0.9406	0.9355	6.317131	21.36351
185	14.00446	2.6847589	0.9406	0.9355	6.313445	21.35485
186	14.01596	2.6849219	0.9406	0.9355	6.312108	21.34992
187	14.01358	2.6848171	0.9467	0.9415	6.312409	21.35031
188	14.00146	2.6859650	0.9467	0.9415	6.313369	21.36704
189	13.98710	2.6888498	0.9437	0.9385	6.313989	21.40022
190	13.98130	2.6905521	0.9467	0.9415	6.314056	21.41832
191	13.98485	2.6891996	0.9437	0.9385	6.314120	21.40452
192	13.98922	2.6834950	0.9376	0.9325	6.315576	21.35222
193	13.98641	2.6705348	0.9407	0.9355	6.320305	21.24049
194	13.97624	2.6003094	0.9376	0.9325	6.345387	20.63330
195	13.97119	2.5942884	0.9376	0.9325	6.348013	20.58355
196	13.96551	2.6228436	0.9437	0.9385	6.338913	20.83549
197	13.93439	2.5841978	0.9437	0.9385	6.355630	20.51522
198	13.87870	2.5782654	0.9468	0.9416	6.363989	20.49308
199	13.82384	2.5786160	0.9376	0.9325	6.370115	20.52532
200	13.77938	2.6526789	0.9437	0.9385	6.349674	21.19800
201	13.74178	2.6786759	0.9407	0.9355	6.344947	21.44729
202	13.70986	2.6765576	0.9437	0.9386	6.349270	21.44643
203	13.68305	2.6741549	0.9407	0.9355	6.353121	21.44023
204	13.65601	2.6719333	0.9407	0.9355	6.356939	21.43573
205	13.62936	2.6687763	0.9437	0.9386	6.361043	21.42276
206	13.60446	2.6668585	0.9407	0.9355	6.364523	21.41973
207	13.58451	2.6686721	0.9468	0.9416	6.366148	21.44687
208	13.57415	2.6757384	0.9438	0.9386	6.364863	21.51509
209	13.57705	2.6839704	0.9498	0.9446	6.361671	21.58620
210	13.59094	2.6910861	0.9438	0.9386	6.357630	21.64127
211	13.61058	2.6961312	0.9468	0.9416	6.353665	21.67477
212	13.63047	2.6988388	0.9468	0.9416	6.350487	21.68745
213	13.64735	2.7001988	0.9407	0.9356	6.348119	21.68994
214	13.66182	2.6996032	0.9377	0.9325	6.346699	21.67651
215	13.67364	2.6951038	0.9377	0.9326	6.346929	21.63016
216	13.67996	2.6856065	0.9377	0.9326	6.349507	21.54287
217	13.67513	2.6769828	0.9377	0.9326	6.353035	21.46956
218	13.65657	2.6726544	0.9438	0.9386	6.356627	21.44178
219	13.63214	2.6698111	0.9469	0.9417	6.360370	21.43033
220	13.61274	2.6670618	0.9499	0.9447	6.363517	21.41690
221	13.59810	2.6649061	0.9469	0.9417	6.365921	21.40605
222	13.58550	2.6636456	0.9469	0.9417	6.367785	21.40194
223	13.57384	2.6631519	0.9469	0.9417	6.369277	21.40409
224	13.56483	2.6630939	0.9408	0.9356	6.370318	21.40860
225	13.55995	2.6606490	0.9408	0.9357	6.371721	21.38973
226	13.55508	2.6574967	0.9378	0.9326	6.373372	21.36460
227	13.54558	2.6534292	0.9408	0.9357	6.375866	21.33396
228	13.53190	2.6485698	0.9408	0.9357	6.379115	21.29864
229	13.51828	2.6461761	0.9500	0.9448	6.381499	21.28506
230	13.50866	2.6466108	0.9530	0.9478	6.382440	21.29423
231	13.50602	2.6483903	0.9530	0.9478	6.382120	21.31143
232	13.51014	2.6511327	0.9500	0.9448	6.380693	21.33338
233	13.51902	2.6552047	0.9470	0.9417	6.378263	21.36444
234	13.53128	2.6603066	0.9439	0.9387	6.375092	21.40269
235	13.54608	2.6663011	0.9439	0.9387	6.371325	21.44741
236	13.56298	2.6692303	0.9379	0.9327	6.368391	21.46384
237	13.58038	2.6698813	0.9439	0.9388	6.366196	21.45986
238	13.59550	2.6675792	0.9409	0.9357	6.365285	21.43109
239	13.60625	2.6650106	0.9531	0.9479	6.364963	21.40242
240	13.61193	2.6668875	0.9470	0.9418	6.363668	21.41581
241	13.61576	2.6711486	0.9501	0.9448	6.361755	21.45127
242	13.62238	2.6779202	0.9531	0.9479	6.358658	21.50733
243	13.63264	2.6842087	0.9470	0.9418	6.355319	21.55707
244	13.64667	2.6871043	0.9440	0.9388	6.352734	21.57475
245	13.66139	2.6852105	0.9440	0.9388	6.351733	21.54978
246	13.67401	2.6759819	0.9410	0.9358	6.353507	21.46137
247	13.67915	2.6655736	0.9471	0.9419	6.356531	21.36681
248	13.67092	2.6621172	0.9471	0.9419	6.358656	21.34095
249	13.65564	2.6605668	0.9532	0.9479	6.360920	21.33577
250	13.64210	2.6587033	0.9502	0.9449	6.363098	21.32687
251	13.63196	2.6566487	0.9471	0.9419	6.364958	21.31439
252	13.62269	2.6537534	0.9502	0.9449	6.367012	21.29401
253	13.61033	2.6515726	0.9502	0.9449	6.369169	21.28163
254	13.59513	2.6502158	0.9502	0.9450	6.371363	21.27809
255	13.58007	2.6503783	0.9472	0.9420	6.373015	21.28788
256	13.57038	2.6517643	0.9472	0.9420	6.373632	21.30548
257	13.56773	2.6517121	0.9472	0.9420	6.373952	21.30650
258	13.56927	2.6510162	0.9472	0.9420	6.374019	21.29950
259	13.57069	2.6501638	0.9502	0.9450	6.374154	21.29119
260	13.57007	2.6510742	0.9502	0.9450	6.373908	21.29956
261	13.56939	2.6538815	0.9533	0.9481	6.373007	21.32472
262	13.57168	2.6579551	0.9503	0.9450	6.371331	21.35941
263	13.57816	2.6605443	0.9442	0.9390	6.369695	21.37866
264	13.58791	2.6642962	0.9472	0.9420	6.367286	21.40634
265	13.59964	2.6674339	0.9473	0.9421	6.364868	21.42749
266	13.61292	2.6703985	0.9473	0.9420	6.362337	21.44624
267	13.62720	2.6740798	0.9412	0.9360	6.359447	21.47075
268	13.64154	2.6778910	0.9443	0.9391	6.356507	21.49635
269	13.65601	2.6808190	0.9473	0.9421	6.353861	21.51407
270	13.66962	2.6816923	0.9443	0.9391	6.352025	21.51415
271	13.68194	2.6814476	0.9504	0.9451	6.350723	21.50510
272	13.69401	2.6814534	0.9565	0.9512	6.349362	21.49840
273	13.70571	2.6826296	0.9504	0.9452	6.347638	21.50222
274	13.71662	2.6846857	0.9504	0.9452	6.345702	21.51423
275	13.72690	2.6869405	0.9474	0.9422	6.343767	21.52833
276	13.73676	2.6886130	0.9504	0.9452	6.342083	21.53754
277	13.74519	2.6898663	0.9504	0.9452	6.340704	21.54385
278	13.75313	2.6909448	0.9444	0.9392	6.339441	21.54890
279	13.76051	2.6919884	0.9505	0.9453	6.338254	21.55395
280	13.76814	2.6928398	0.9505	0.9453	6.337105	21.55716
281	13.77578	2.6936213	0.9596	0.9544	6.335980	21.55976
282	13.78403	2.6939303	0.9505	0.9453	6.334948	21.55786
283	13.79310	2.6950794	0.9505	0.9453	6.333538	21.56289
284	13.80247	2.6968939	0.9505	0.9453	6.331864	21.57359
285	13.81080	2.6987789	0.9475	0.9423	6.330284	21.58550
286	13.81732	2.7001973	0.9536	0.9484	6.329067	21.59431
287	13.82397	2.7016627	0.9536	0.9484	6.327820	21.60346
288	13.83286	2.7027020	0.9506	0.9454	6.326470	21.60761
289	13.84685	2.7031341	0.9537	0.9484	6.324759	21.60357
290	13.86538	2.7028361	0.9537	0.9484	6.322791	21.59056
291	13.88648	2.7020125	0.9415	0.9363	6.320718	21.57153
292	13.90715	2.7009846	0.9507	0.9454	6.318763	21.55096
293	13.92585	2.6999278	0.9476	0.9424	6.317040	21.53126
294	13.94062	2.6984626	0.9537	0.9485	6.315893	21.51018
295	13.94960	2.6967759	0.9507	0.9455	6.315468	21.49041
296	13.95203	2.6963266	0.9568	0.9515	6.315350	21.48512
297	13.95166	2.6963558	0.9538	0.9485	6.315381	21.48558
298	13.95241	2.6965425	0.9538	0.9485	6.315234	21.48680
299	13.95478	2.6982465	0.9599	0.9546	6.314389	21.50040
300	13.96058	2.7013520	0.9569	0.9516	6.312683	21.52436
301	13.97044	2.7043069	0.9538	0.9486	6.310578	21.54474
302	13.98361	2.7063106	0.9508	0.9456	6.308430	21.55494
303	13.99566	2.7076661	0.9478	0.9426	6.306628	21.56008
304	14.00415	2.7077537	0.9539	0.9486	6.305654	21.55611
305	14.01452	2.7063629	0.9447	0.9396	6.304975	21.53816
306	14.02858	2.7043240	0.9448	0.9396	6.304106	21.51250
307	14.04296	2.7027002	0.9509	0.9456	6.303060	21.49031
308	14.05178	2.7019818	0.9479	0.9427	6.302324	21.47913
309	14.05565	2.7033308	0.9509	0.9457	6.301435	21.48876
310	14.06047	2.7064443	0.9570	0.9517	6.299844	21.51328
311	14.07036	2.7094130	0.9570	0.9518	6.297740	21.53371
312	14.08319	2.7107807	0.9570	0.9518	6.295854	21.53852
313	14.10241	2.7118271	0.9510	0.9457	6.293369	21.53696
314	14.15381	2.7133821	0.9479	0.9427	6.287155	21.52194
315	14.26205	2.7146152	0.9449	0.9397	6.274788	21.47265
316	14.40490	2.7148304	0.9449	0.9397	6.258999	21.39569
317	14.53685	2.7142911	0.9510	0.9458	6.244713	21.31863
318	14.63387	2.7131615	0.9511	0.9458	6.234483	21.25593
319	14.68910	2.7115822	0.9571	0.9519	6.228978	21.21230
320	14.71165	2.7106700	0.9511	0.9458	6.226820	21.19223
321	14.71860	2.7110908	0.9602	0.9550	6.225925	21.19207
322	14.72860	2.7123829	0.9572	0.9519	6.224411	21.19775
323	14.75335	2.7134821	0.9603	0.9550	6.221358	21.19377
324	14.79433	2.7140666	0.9603	0.9550	6.216711	21.17659
325	14.84585	2.7141012	0.9512	0.9459	6.211105	21.14903
326	14.89532	2.7138610	0.9512	0.9460	6.205817	21.12028
327	14.93083	2.7136151	0.9512	0.9460	6.202052	21.09906
328	14.95822	2.7133750	0.9421	0.9369	6.199165	21.08228
329	14.99038	2.7132402	0.9513	0.9460	6.195730	21.06385
330	15.02733	2.7131580	0.9513	0.9460	6.191764	21.04334
331	15.06612	2.7131051	0.9513	0.9461	6.187594	21.02212
332	15.10721	2.7129702	0.9544	0.9491	6.183207	20.99900
333	15.14713	2.7131277	0.9574	0.9522	6.178858	20.97904
334	15.18657	2.7136420	0.9574	0.9522	6.174450	20.96240
335	15.23233	2.7145248	0.9575	0.9522	6.169251	20.94554
336	15.28235	2.7153433	0.9544	0.9492	6.163621	20.92590
337	15.33129	2.7158401	0.9514	0.9462	6.158220	20.90416
338	15.38405	2.7155705	0.9514	0.9462	6.152661	20.87396
339	15.43931	2.7147745	0.9514	0.9462	6.147009	20.83807
340	15.49439	2.7135048	0.9454	0.9402	6.141533	20.79837
341	15.54852	2.7120307	0.9515	0.9462	6.136231	20.75755
342	15.59763	2.7106563	0.9484	0.9432	6.131436	20.72028
343	15.63732	2.7094284	0.9515	0.9463	6.127600	20.68924
344	15.66638	2.7083293	0.9454	0.9402	6.124857	20.66487
345	15.68937	2.7074759	0.9607	0.9554	6.122682	20.64574
346	15.71238	2.7065349	0.9637	0.9584	6.120535	20.62590
347	15.73645	2.7049048	0.9668	0.9615	6.118490	20.59975
348	15.76048	2.7021829	0.9638	0.9585	6.116790	20.56454
349	15.78215	2.6989250	0.9608	0.9555	6.115506	20.52610
350	15.80213	2.6958320	0.9547	0.9494	6.114350	20.48995
351	15.82357	2.6936850	0.9577	0.9525	6.112744	20.46099
352	15.83956	2.6922093	0.9547	0.9495	6.111508	20.44046
353	15.85002	2.6910139	0.9547	0.9495	6.110770	20.42512
354	15.85680	2.6898186	0.9517	0.9465	6.110422	20.41167
355	15.86056	2.6885945	0.9517	0.9465	6.110404	20.39954
356	15.86122	2.6876386	0.9548	0.9496	6.110630	20.39124
357	15.85990	2.6868461	0.9579	0.9526	6.111015	20.38530
358	15.85753	2.6859779	0.9609	0.9557	6.111536	20.37928
359	15.85463	2.6853603	0.9610	0.9557	6.112034	20.37562
360	15.85147	2.6846438	0.9579	0.9527	6.112592	20.37127
361	15.84838	2.6836768	0.9580	0.9527	6.113220	20.36479
362	15.84449	2.6822848	0.9580	0.9527	6.114063	20.35517
363	15.84028	2.6811260	0.9580	0.9527	6.114870	20.34767
364	15.83574	2.6802702	0.9519	0.9467	6.115617	20.34286
365	15.83087	2.6799558	0.9519	0.9467	6.116232	20.34273
366	15.82607	2.6799442	0.9520	0.9468	6.116745	20.34509
367	15.82068	2.6794494	0.9550	0.9498	6.117472	20.34372
368	15.81555	2.6783202	0.9581	0.9529	6.118368	20.33692
369	15.81048	2.6773075	0.9581	0.9529	6.119220	20.33107
370	15.80496	2.6763590	0.9582	0.9529	6.120102	20.32598
371	15.79898	2.6750441	0.9582	0.9529	6.121147	20.31807
372	15.79306	2.6730837	0.9521	0.9469	6.122386	20.30474
373	15.78655	2.6713565	0.9552	0.9499	6.123615	20.29365
374	15.77979	2.6702053	0.9583	0.9530	6.124694	20.28750
375	15.77171	2.6701007	0.9583	0.9530	6.125587	20.29075
376	15.76350	2.6698624	0.9613	0.9561	6.126536	20.29295
377	15.75660	2.6685661	0.9553	0.9500	6.127674	20.28565
378	15.75030	2.6672583	0.9584	0.9531	6.128753	20.27795
379	15.74380	2.6667295	0.9584	0.9531	6.129611	20.27685
380	15.73711	2.6664739	0.9614	0.9562	6.130405	20.27813
381	15.73075	2.6656779	0.9523	0.9471	6.131332	20.27473
382	15.72491	2.6650272	0.9524	0.9471	6.132158	20.27228
383	15.71979	2.6643591	0.9554	0.9502	6.132912	20.26931
384	15.71553	2.6637201	0.9585	0.9532	6.133567	20.26614
385	15.71159	2.6630231	0.9555	0.9502	6.134205	20.26233
386	15.70714	2.6623552	0.9585	0.9533	6.134890	20.25902
387	15.70143	2.6617048	0.9555	0.9503	6.135702	20.25650
388	15.69527	2.6610196	0.9555	0.9503	6.136574	20.25391
389	15.68859	2.6602648	0.9586	0.9533	6.137525	20.25101
390	15.68276	2.6591849	0.9556	0.9504	6.138486	20.24496
391	15.67765	2.6585812	0.9617	0.9564	6.139221	20.24252
392	15.67319	2.6581633	0.9587	0.9534	6.139828	20.24130
393	15.66920	2.6575713	0.9587	0.9534	6.140441	20.23838
394	15.66573	2.6571418	0.9588	0.9535	6.140947	20.23656
395	15.66252	2.6569097	0.9557	0.9505	6.141363	20.23626
396	15.65951	2.6564339	0.9618	0.9565	6.141834	20.23381
397	15.65643	2.6559348	0.9588	0.9536	6.142320	20.23121
398	15.65355	2.6554648	0.9558	0.9505	6.142775	20.22875
399	15.65028	2.6549078	0.9649	0.9596	6.143300	20.22575
400	15.64733	2.6543335	0.9528	0.9476	6.143796	20.22245
401	15.64406	2.6537708	0.9558	0.9506	6.144323	20.21941
402	15.64079	2.6538926	0.9559	0.9506	6.144635	20.22210
403	15.63778	2.6536084	0.9559	0.9507	6.145046	20.22126
404	15.63457	2.6524773	0.9620	0.9567	6.145745	20.21342
405	15.63163	2.6513870	0.9590	0.9537	6.146402	20.20580
406	15.62836	2.6504360	0.9560	0.9507	6.147051	20.19951
407	15.62502	2.6494504	0.9591	0.9538	6.147718	20.19296
408	15.62155	2.6480822	0.9530	0.9477	6.148519	20.18327
409	15.61802	2.6465463	0.9561	0.9508	6.149380	20.17222
410	15.61397	2.6453410	0.9561	0.9508	6.150193	20.16419
411	15.60926	2.6439737	0.9531	0.9478	6.151128	20.15514
412	15.60384	2.6426008	0.9592	0.9539	6.152141	20.14640
413	15.59828	2.6406376	0.9501	0.9449	6.153355	20.13279
414	15.59266	2.6379686	0.9593	0.9540	6.154797	20.11330
415	15.58691	2.6111936	0.9593	0.9540	6.163831	19.89218
416	15.58214	2.6088179	0.9593	0.9540	6.165092	19.87470
417	15.57770	2.6076534	0.9624	0.9571	6.165938	19.86719
418	15.57378	2.6287764	0.9655	0.9602	6.159719	20.04591
419	15.57019	2.6053768	0.9624	0.9571	6.167466	19.85192
420	15.56647	2.6052616	0.9625	0.9572	6.167905	19.85282
421	15.56307	2.6113379	0.9594	0.9541	6.166360	19.90536
422	15.55955	2.6477350	0.9594	0.9542	6.155286	20.21197
423	15.55622	2.6473003	0.9565	0.9512	6.155781	20.21003
424	15.55289	2.6467671	0.9626	0.9573	6.156307	20.20725
425	15.54956	2.6460485	0.9626	0.9573	6.156891	20.20293
426	15.54701	2.6453300	0.9565	0.9513	6.157391	20.19820
427	15.54532	2.6445362	0.9565	0.9513	6.157823	20.19241
428	15.54297	2.6436730	0.9535	0.9483	6.158348	20.18637
429	15.53703	2.6424450	0.9566	0.9514	6.159374	20.17910
430	15.52822	2.6411883	0.9597	0.9544	6.160718	20.17305
431	15.51903	2.6397928	0.9567	0.9514	6.162148	20.16603
432	15.50938	2.6385713	0.9597	0.9544	6.163573	20.16070
433	15.50084	2.6375236	0.9506	0.9454	6.164824	20.15626
434	15.49426	2.6361231	0.9567	0.9515	6.165976	20.14786
435	15.48970	2.6346070	0.9538	0.9485	6.166946	20.13746
436	15.48599	2.6328194	0.9568	0.9515	6.167912	20.12434
437	15.48201	2.6314718	0.9538	0.9486	6.168766	20.11506
438	15.47817	2.6306391	0.9538	0.9486	6.169444	20.11002
439	15.47635	2.6304540	0.9599	0.9547	6.169700	20.10939
440	15.47550	2.6312637	0.9630	0.9577	6.169535	20.11662
441	15.47491	2.6324320	0.9600	0.9547	6.169229	20.12672
442	15.47439	2.6320155	0.9692	0.9639	6.169417	20.12349
443	15.47381	2.6294133	0.9691	0.9638	6.170303	20.10195
444	15.47270	2.6279217	0.9570	0.9518	6.170894	20.08999
445	15.47107	2.6269391	0.9631	0.9578	6.171381	20.08257
446	15.46860	2.6260375	0.9541	0.9488	6.171933	20.07626
447	15.46645	2.6259739	0.9541	0.9488	6.172185	20.07682
448	15.46404	2.6272686	0.9571	0.9519	6.172036	20.08891
449	15.46156	2.6292688	0.9602	0.9549	6.171671	20.10696
450	15.45942	2.6300667	0.9542	0.9489	6.171651	20.11475
451	15.45753	2.6297083	0.9694	0.9641	6.171968	20.11270
452	15.45538	2.6281473	0.9603	0.9550	6.172694	20.10068
453	15.45258	2.6244254	0.9664	0.9611	6.174174	20.07085
454	15.44868	2.4726661	0.9603	0.9551	6.222634	18.80317
455	15.44464	2.4394214	0.9604	0.9551	6.233607	18.52818
456	15.43918	2.4412229	0.9543	0.9491	6.233644	18.54574
457	15.43033	2.4437345	0.9574	0.9521	6.233831	18.57080
458	15.41564	2.4310960	0.9574	0.9522	6.239473	18.47246
459	15.39523	2.3442783	0.9575	0.9522	6.269308	17.76042
460	15.35282	2.3819901	0.9575	0.9522	6.262097	18.09287
461	15.30730	2.4812695	0.9606	0.9553	6.235558	18.94256
462	15.27834	2.5744139	0.9606	0.9554	6.209031	19.73835
463	15.22069	2.6369820	0.9637	0.9584	6.195318	20.29520
464	15.07121	2.6365087	0.9698	0.9644	6.211746	20.36843
465	14.88124	2.6358158	0.9638	0.9585	6.232754	20.46135
466	14.71802	2.6351344	0.9607	0.9554	6.250922	20.54103
467	14.60946	2.5171391	0.9608	0.9555	6.301870	19.58823
468	14.55245	2.4820004	0.9608	0.9555	6.319930	19.31679
469	14.49630	2.4832356	0.9578	0.9525	6.325887	19.35520
470	14.44605	2.4796230	0.9609	0.9556	6.332795	19.34927
471	14.39435	2.5532396	0.9609	0.9556	6.314092	20.00678
472	14.34645	2.4747849	0.9548	0.9496	6.345752	19.35738
473	14.31815	2.4701022	0.9640	0.9587	6.350552	19.33130
474	14.29156	2.5789107	0.9640	0.9587	6.317064	20.28120
475	14.23921	2.6140373	0.9640	0.9587	6.311137	20.61242
476	14.17934	2.6106288	0.9580	0.9527	6.319000	20.61472
477	14.10755	2.6082654	0.9611	0.9558	6.327870	20.63244
478	14.03108	2.6066981	0.9642	0.9589	6.337018	20.65962
479	13.96763	2.6058168	0.9550	0.9498	6.344482	20.68589
480	13.92043	2.6054369	0.9612	0.9559	6.349951	20.70788
481	13.88685	2.6053623	0.9612	0.9559	6.353778	20.72525
482	13.86289	2.6054374	0.9612	0.9560	6.356467	20.73878
483	13.84573	2.6054375	0.9613	0.9560	6.358413	20.74802
484	13.83236	2.6053570	0.9613	0.9560	6.359957	20.75451
485	13.82086	2.6048961	0.9613	0.9561	6.361421	20.75667
486	13.80949	2.6047751	0.9614	0.9561	6.362753	20.76174
487	13.79781	2.6049769	0.9614	0.9561	6.364009	20.76980
488	13.78813	2.6059567	0.9645	0.9592	6.364772	20.78360
489	13.78217	2.6075591	0.9645	0.9592	6.364897	20.80085
490	13.78242	2.6087582	0.9645	0.9592	6.364456	20.81122
491	13.78695	2.6098075	0.9615	0.9562	6.363580	20.81796
492	13.79465	2.6109608	0.9677	0.9624	6.362309	20.82390
493	13.80427	2.6123046	0.9616	0.9563	6.360755	20.83046
494	13.81564	2.6137178	0.9586	0.9533	6.358980	20.83669
495	13.82844	2.6148370	0.9586	0.9533	6.357144	20.83956
496	13.84212	2.6157833	0.9617	0.9564	6.355270	20.84044
497	13.85518	2.6166373	0.9648	0.9595	6.353499	20.84085
498	13.86756	2.6175377	0.9648	0.9595	6.351789	20.84204
499	13.87920	2.6186286	0.9679	0.9626	6.350099	20.84528
500	13.89078	2.6197255	0.9648	0.9595	6.348414	20.84861
501	13.90547	2.6209727	0.9649	0.9596	6.346326	20.85157
502	13.92890	2.6223529	0.9619	0.9566	6.343209	20.85097
503	13.97150	2.6237910	0.9589	0.9536	6.337914	20.84052
504	14.04046	2.6248131	0.9589	0.9536	6.329803	20.81227
505	14.13073	2.6252399	0.9529	0.9476	6.319518	20.76749
506	14.22274	2.6251986	0.9560	0.9507	6.309224	20.71788
507	14.29824	2.6249784	0.9651	0.9598	6.300859	20.67570
508	14.35326	2.6247873	0.9591	0.9538	6.294784	20.64479
509	14.39448	2.6245905	0.9561	0.9508	6.290257	20.62122
510	14.42670	2.6242782	0.9622	0.9569	6.286774	20.60145
511	14.45079	2.6238273	0.9653	0.9600	6.284245	20.58482
512	14.46648	2.6231917	0.9653	0.9600	6.282711	20.57105
513	14.47312	2.6227006	0.9623	0.9570	6.282136	20.56331
514	14.47414	2.6226486	0.9684	0.9631	6.282041	20.56233
515	14.47616	2.6227815	0.9685	0.9631	6.281771	20.56240
516	14.48281	2.6229490	0.9715	0.9662	6.280977	20.56033
517	14.49497	2.6229315	0.9715	0.9662	6.279632	20.55376
518	14.51087	2.6227003	0.9655	0.9602	6.277943	20.54339
519	14.52589	2.6224403	0.9656	0.9603	6.276362	20.53324
520	14.53825	2.6220185	0.9656	0.9603	6.275129	20.52310
521	14.54624	2.6214293	0.9656	0.9603	6.274438	20.51383
522	14.54833	2.6210885	0.9687	0.9634	6.274319	20.50980
523	14.54687	2.6209500	0.9687	0.9634	6.274526	20.50938
524	14.54535	2.6209384	0.9657	0.9604	6.274699	20.51008
525	14.54605	2.6208922	0.9657	0.9604	6.274637	20.50932
526	14.54890	2.6209153	0.9689	0.9635	6.274313	20.50801
527	14.55385	2.6207882	0.9567	0.9514	6.273806	20.50432
528	14.55988	2.6204763	0.9629	0.9576	6.273240	20.49847
529	14.56464	2.6199104	0.9598	0.9545	6.272900	20.49111
530	14.56597	2.6192521	0.9568	0.9515	6.272970	20.48476
531	14.56235	2.6184843	0.9659	0.9606	6.273625	20.48006
532	14.55417	2.6178897	0.9630	0.9577	6.274730	20.47926
533	14.54446	2.6174049	0.9721	0.9668	6.275968	20.48019
534	14.53546	2.6170414	0.9722	0.9668	6.277089	20.48179
535	14.52741	2.6172492	0.9662	0.9608	6.277914	20.48781
536	14.52126	2.6176937	0.9722	0.9668	6.278450	20.49487
537	14.51904	2.6180517	0.9692	0.9639	6.278577	20.49911
538	14.52037	2.6182306	0.9632	0.9579	6.278370	20.49995
539	14.52373	2.6179131	0.9723	0.9670	6.278102	20.49545
540	14.52627	2.6173012	0.9724	0.9670	6.278023	20.48886
541	14.52627	2.6164643	0.9693	0.9640	6.278301	20.48167
542	14.52253	2.6157025	0.9725	0.9671	6.278969	20.47708
543	14.51594	2.6154313	0.9725	0.9671	6.279792	20.47822
544	14.50840	2.6155641	0.9725	0.9672	6.280586	20.48332
545	14.50307	2.6157027	0.9665	0.9612	6.281131	20.48731
546	14.50029	2.6158123	0.9635	0.9582	6.281405	20.48972
547	14.49997	2.6160894	0.9696	0.9642	6.281348	20.49227
548	14.50079	2.6164933	0.9635	0.9582	6.281122	20.49531
549	14.50390	2.6167934	0.9636	0.9583	6.280678	20.49626
550	14.50954	2.6169665	0.9575	0.9523	6.279993	20.49478
551	14.51929	2.6170704	0.9606	0.9553	6.278874	20.49054
552	14.53178	2.6169144	0.9637	0.9584	6.277539	20.48264
553	14.54395	2.6167642	0.9637	0.9584	6.276237	20.47495
554	14.55436	2.6166833	0.9668	0.9615	6.275109	20.46879
555	14.56540	2.6167410	0.9699	0.9646	6.273864	20.46349
556	14.57949	2.6168505	0.9638	0.9585	6.272264	20.45704
557	14.59873	2.6170408	0.9700	0.9646	6.270068	20.44859
558	14.62122	2.6171503	0.9670	0.9616	6.267539	20.43774
559	14.64309	2.6171963	0.9670	0.9617	6.265101	20.42669
560	14.66275	2.6172308	0.9701	0.9647	6.262914	20.41670
561	14.68203	2.6171729	0.9640	0.9587	6.260799	20.40613
562	14.70184	2.6170919	0.9701	0.9648	6.258635	20.39510
563	14.72127	2.6169013	0.9641	0.9588	6.256550	20.38333
564	14.73900	2.6165779	0.9642	0.9589	6.254698	20.37133
565	14.75303	2.6162719	0.9672	0.9619	6.253249	20.36140
566	14.76285	2.6159832	0.9612	0.9559	6.252259	20.35382
567	14.77077	2.6157004	0.9643	0.9590	6.251478	20.34729
568	14.77971	2.6154291	0.9673	0.9620	6.250581	20.34033
569	14.79043	2.6151058	0.9673	0.9620	6.249503	20.33199
570	14.80065	2.6147422	0.9674	0.9621	6.248494	20.32358
571	14.80889	2.6144075	0.9705	0.9652	6.247695	20.31644
572	14.81586	2.6140613	0.9645	0.9592	6.247040	20.30988
573	14.82193	2.6137323	0.9675	0.9622	6.246478	20.30392
574	14.82800	2.6133515	0.9646	0.9592	6.245933	20.29753
575	14.83325	2.6129419	0.9767	0.9713	6.245489	20.29131
576	14.83728	2.6124746	0.9646	0.9593	6.245197	20.28525
577	14.84015	2.6121285	0.9677	0.9624	6.244993	20.28080
578	14.84054	2.6118862	0.9616	0.9564	6.245030	20.27854
579	14.83849	2.6116094	0.9708	0.9654	6.245346	20.27724
580	14.83472	2.6100523	0.9769	0.9716	6.246270	20.26592
581	14.80953	2.5545693	0.9739	0.9686	6.267185	19.80635
582	14.46275	2.5130262	0.9740	0.9686	6.319781	19.62685
583	13.96913	2.5080431	0.9739	0.9686	6.377676	19.83499
584	13.63740	2.5058235	0.9770	0.9717	6.416684	19.98706
585	13.45437	2.5055636	0.9679	0.9626	6.438033	20.08033
586	13.35824	2.5066612	0.9619	0.9566	6.448856	20.14047
587	13.30705	2.5082532	0.9681	0.9628	6.454275	20.18149
588	13.27852	2.5123931	0.9711	0.9658	6.456147	20.23313
589	13.26169	2.5149477	0.9651	0.9598	6.457211	20.26462
590	13.25001	2.5149478	0.9651	0.9598	6.458577	20.27082
591	13.24218	2.5186417	0.9743	0.9689	6.458184	20.30764
592	13.23460	2.5203727	0.9713	0.9660	6.458457	20.32699
593	13.22812	2.5189549	0.9713	0.9660	6.459717	20.31790
594	13.22580	2.5175659	0.9714	0.9660	6.460482	20.30684
595	13.22622	2.5177594	0.9684	0.9631	6.460363	20.30833
596	13.22629	2.5180896	0.9623	0.9570	6.460239	20.31122
597	13.22647	2.5150788	0.9715	0.9662	6.461285	20.28448
598	13.22824	2.5113129	0.9715	0.9662	6.462413	20.25023
599	13.23240	2.5081003	0.9715	0.9662	6.463065	20.21961
600	13.23772	2.5066111	0.9655	0.9602	6.462970	20.20363
601	13.24249	2.5057245	0.9655	0.9602	6.462725	20.19327
602	13.24560	2.5062530	0.9656	0.9603	6.462172	20.19629
603	13.24762	2.5057244	0.9686	0.9633	6.462123	20.19055
604	13.24958	2.5049402	0.9718	0.9664	6.462172	20.18259
605	13.25141	2.5045255	0.9687	0.9634	6.462104	20.17796
606	13.25276	2.5036107	0.9718	0.9665	6.462270	20.16916
607	13.25423	2.5025428	0.9749	0.9696	6.462476	20.15895
608	13.25490	2.5034062	0.9658	0.9605	6.462092	20.16623
609	13.25496	2.5044743	0.9720	0.9666	6.461706	20.17563
610	13.25362	2.5044459	0.9750	0.9697	6.461874	20.17609
611	13.25276	2.5049459	0.9690	0.9637	6.461797	20.18096
612	13.25221	2.5053096	0.9660	0.9607	6.461733	20.18446
613	13.25117	2.5060370	0.9691	0.9637	6.461597	20.19144
614	13.24964	2.5057528	0.9630	0.9577	6.461877	20.18974
615	13.24885	2.5056733	0.9722	0.9669	6.461998	20.18946
616	13.24878	2.5048096	0.9753	0.9699	6.462311	20.18185
617	13.24982	2.5047868	0.9723	0.9670	6.462198	20.18110
618	13.25123	2.5040823	0.9693	0.9640	6.462282	20.17414
619	13.25276	2.5049232	0.9754	0.9701	6.461805	20.18076
620	13.25264	2.5048664	0.9694	0.9640	6.461840	20.18032
621	13.25215	2.5047357	0.9724	0.9671	6.461943	20.17942
622	13.25245	2.5041334	0.9755	0.9701	6.462121	20.17394
623	13.25313	2.5038493	0.9694	0.9641	6.462143	20.17108
624	13.25404	2.5040311	0.9725	0.9672	6.461971	20.17220
625	13.25429	2.5040539	0.9726	0.9673	6.461934	20.17227
626	13.25429	2.5046050	0.9665	0.9612	6.461739	20.17714
627	13.25325	2.5049686	0.9696	0.9643	6.461732	20.18090
628	13.25233	2.5049970	0.9727	0.9674	6.461829	20.18164
629	13.25209	2.5052527	0.9697	0.9644	6.461767	20.18403
630	13.25141	2.5051505	0.9667	0.9614	6.461882	20.18348
631	13.25135	2.5059062	0.9728	0.9675	6.461622	20.19019
632	13.25001	2.5065087	0.9728	0.9675	6.461566	20.19622
633	13.24817	2.5070031	0.9729	0.9676	6.461606	20.20156
634	13.24640	2.5079922	0.9699	0.9646	6.461463	20.21125
635	13.24377	2.5090155	0.9699	0.9646	6.461409	20.22168
636	13.24169	2.5092714	0.9761	0.9707	6.461561	20.22504
637	13.23973	2.5102948	0.9792	0.9738	6.461428	20.23513
638	13.23790	2.5107384	1.0400	1.0343	6.461486	20.24001
639	13.23435	2.5211586	1.1283	1.1221	6.458209	20.33403
640	13.21602	2.5269930	1.2349	1.2281	6.458284	20.39543
641	13.18652	2.5299692	1.3475	1.3401	6.460676	20.43754
642	13.16009	2.5310187	1.4602	1.4521	6.463394	20.46098
643	13.14423	2.5371752	1.6093	1.6004	6.463059	20.52409
644	13.12966	2.5655897	1.7797	1.7699	6.454640	20.78436
645	13.10200	2.5987566	1.9745	1.9636	6.446032	21.09476
646	13.05354	2.6229037	2.1875	2.1755	6.443020	21.33716
647	12.98906	2.6451032	2.4189	2.4056	6.442521	21.57207
648	12.91573	2.6565334	2.6380	2.6235	6.446881	21.71630
649	12.82802	2.6748261	2.8753	2.8595	6.450404	21.93122
650	12.74578	2.6995534	3.1127	3.0956	6.450928	22.20220
651	12.70045	2.7187135	3.3380	3.3196	6.449182	22.40224
652	12.67721	2.7380051	3.5724	3.5527	6.444831	22.59090
653	12.65422	2.7747325	3.7824	3.7615	6.434080	22.93831
654	12.61561	2.7957413	4.0106	3.9886	6.430814	23.15304
655	12.57327	2.8049002	4.2450	4.2216	6.432285	23.26252
656	12.53049	2.8156588	4.4671	4.4425	6.433209	23.38716
657	12.51562	2.8258446	4.6923	4.6665	6.431164	23.48949
658	12.53367	2.8312661	4.9206	4.8935	6.427132	23.52778
659	12.54746	2.8347241	5.1489	5.1206	6.424305	23.55074
660	12.55214	2.8370601	5.3832	5.3536	6.422923	23.56911
661	12.55220	2.8390579	5.6145	5.5836	6.422187	23.58727
662	12.54836	2.8409194	5.8428	5.8106	6.421942	23.60663
663	12.53979	2.8430075	6.0618	6.0285	6.422150	23.63104
664	12.52258	2.8449535	6.2871	6.2525	6.423386	23.65957
665	12.49723	2.8507820	6.5245	6.4886	6.424117	23.72881
666	12.47501	2.8578427	6.7619	6.7247	6.424037	23.80749
667	12.46944	2.8734465	6.9993	6.9607	6.418932	23.95415
668	12.47339	2.8881660	7.2184	7.1786	6.413080	24.08675
669	12.45634	2.8992871	7.4558	7.4147	6.410911	24.19982
670	12.41065	2.9019309	7.6841	7.6417	6.415072	24.25347
671	12.36090	2.9024830	7.9245	7.8808	6.420464	24.29056
672	12.30508	2.9026874	8.1589	8.1139	6.426675	24.32845
673	12.24250	2.9025382	8.3902	8.3439	6.433789	24.36756
674	12.18858	2.9023409	8.6245	8.5769	6.439954	24.40068
675	12.14928	2.9018078	8.8497	8.8009	6.444600	24.42125
676	12.11102	2.9026895	9.0780	9.0279	6.448602	24.45430
677	12.07298	2.9056643	9.3063	9.2550	6.451798	24.50671
678	12.02931	2.9115688	9.5376	9.4849	6.454532	24.59019
679	11.95840	2.9157183	9.7719	9.7180	6.461010	24.67547
680	11.86878	2.9213544	10.0063	9.9511	6.469053	24.78737
681	11.76093	2.9257680	10.2284	10.1720	6.479639	24.90048
682	11.65703	2.9263343	10.4658	10.4081	6.491265	24.97532
683	11.57467	2.9346806	10.6941	10.6350	6.497462	25.10934
684	11.50778	2.9506929	10.9224	10.8621	6.498927	25.30591
685	11.42494	2.9651786	11.1567	11.0951	6.502771	25.49976
686	11.32087	2.9728162	11.4001	11.3372	6.511677	25.64410
687	11.21014	2.9843798	11.6224	11.5582	6.519804	25.83135
688	11.11641	2.9932304	11.8476	11.7822	6.527041	25.98171
689	11.00669	2.9889085	12.0758	12.0092	6.541315	26.01763
690	10.85382	2.9857951	12.2949	12.2270	6.560132	26.09597
691	10.73880	3.0007218	12.5232	12.4540	6.567412	26.32228
692	10.68741	3.0027926	12.7454	12.6750	6.572508	26.37923
693	10.59338	3.0050345	12.9767	12.9050	6.582463	26.46883
694	10.49317	3.0089480	13.2019	13.1290	6.592470	26.57961
695	10.40183	3.0114408	13.4271	13.3529	6.602042	26.67055
696	10.32048	3.0174983	13.6645	13.5890	6.609005	26.78946
697	10.24466	3.0218133	13.8928	13.8160	6.616041	26.88766
698	10.15155	3.0207309	14.1089	14.0309	6.627325	26.94594
699	10.05564	3.0188030	14.3341	14.2549	6.639319	26.99819
700	9.95095	3.0111052	14.5624	14.4819	6.654790	27.00009
701	9.81954	3.0055346	14.7755	14.6938	6.672579	27.04305
702	9.66913	3.0031129	14.9885	14.9056	6.691363	27.13189
703	9.51836	3.0031023	15.2137	15.1296	6.709240	27.24568
704	9.36906	3.0167904	15.4359	15.3505	6.721097	27.49691
705	9.21983	3.0282965	15.6429	15.5563	6.733866	27.72802
706	9.04531	3.0310216	15.8590	15.7713	6.753492	27.89155
707	8.80895	3.0373393	16.0781	15.9892	6.779007	28.14206
708	8.55742	3.0477278	16.3003	16.2101	6.804609	28.44959
709	8.32252	3.0541626	16.5316	16.4401	6.830063	28.70635
710	8.14431	3.0609994	16.7690	16.6762	6.848530	28.92348
711	8.02622	3.0674313	17.0399	16.9456	6.859907	29.08831
712	7.92356	3.0702180	17.2742	17.1786	6.871105	29.20292
713	7.78508	3.0755851	17.5055	17.4086	6.885480	29.37545
714	7.63715	3.0854083	17.7460	17.6477	6.898921	29.60445
715	7.50474	3.0871950	17.9833	17.8837	6.914278	29.73631
716	7.41374	3.0875642	18.2147	18.1138	6.925268	29.81822
717	7.35668	3.0901854	18.4642	18.3620	6.931025	29.89527
718	7.29912	3.0948831	18.7047	18.6011	6.935844	29.99522
719	7.21719	3.0966162	18.9359	18.8310	6.945090	30.08487
720	7.13078	3.0972376	19.1764	19.0702	6.955439	30.16680
721	7.06350	3.0981783	19.4199	19.3123	6.963289	30.23574
722	7.01253	3.0988241	19.6512	19.5423	6.969275	30.28736
723	6.96366	3.0993285	19.8916	19.7814	6.975077	30.33573
724	6.91054	3.0994766	20.1260	20.0144	6.981586	30.38411
725	6.87043	3.0996000	20.3573	20.2445	6.986501	30.42081
726	6.84413	3.0995942	20.6009	20.4867	6.989771	30.44394
727	6.82653	3.0992012	20.8382	20.7226	6.992153	30.45516
728	6.81375	3.0988880	21.0695	20.9527	6.993899	30.46298
729	6.80305	3.0985932	21.3100	21.1918	6.995379	30.46917
730	6.78811	3.0985135	21.5473	21.4279	6.997279	30.48146
731	6.75024	3.0993313	21.7817	21.6609	7.001586	30.52392
732	6.69564	3.0991537	22.0252	21.9031	7.008473	30.57053
733	6.65048	3.0990129	22.2809	22.1573	7.014173	30.60920
734	6.60872	3.0990687	22.5243	22.3994	7.019357	30.64707
735	6.56623	3.0985714	22.7739	22.6475	7.024914	30.67960
736	6.53000	3.0978039	23.0113	22.8836	7.029831	30.70362
737	6.49929	3.0943091	23.2608	23.1318	7.035433	30.69277
738	6.44651	3.0919272	23.5104	23.3800	7.043251	30.71399
739	6.36978	3.0925666	23.7600	23.6281	7.052562	30.79009
740	6.29876	3.0949255	24.0096	23.8763	7.060295	30.88027
741	6.22802	3.0977212	24.2531	24.1184	7.067776	30.97535
742	6.16620	3.0952648	24.4935	24.3575	7.076824	31.00442
743	6.10239	3.0945162	24.7370	24.5996	7.085266	31.05434
744	6.04878	3.0925026	24.9744	24.8357	7.093084	31.08097
745	6.00183	3.0920795	25.2026	25.0626	7.099250	31.11925
746	5.96604	3.0931053	25.4461	25.3048	7.103260	31.16348
747	5.94572	3.0922583	25.6806	25.5379	7.106280	31.17264
748	5.92683	3.0911105	25.9179	25.7739	7.109277	31.17714
749	5.90906	3.0914668	26.1523	26.0070	7.111352	31.19739
750	5.89802	3.0888828	26.4018	26.2551	7.114101	31.17860
751	5.87779	3.0825887	26.6423	26.4942	7.119952	31.12686
752	5.83517	3.0817982	26.8858	26.7364	7.125797	31.15719
753	5.79881	3.0838469	27.1444	26.9935	7.129367	31.21357
754	5.78518	3.0853684	27.3849	27.2327	7.130314	31.24310
755	5.77615	3.0803888	27.6253	27.4717	7.134076	31.19558
756	5.74513	3.0789914	27.8688	27.7139	7.138775	31.20849
757	5.71544	3.0787282	28.1154	27.9590	7.142712	31.23291
758	5.69554	3.0781339	28.3528	28.1951	7.145574	31.24457
759	5.68210	3.0775887	28.5932	28.4342	7.147587	31.25081
760	5.67259	3.0766267	28.8489	28.6884	7.149316	31.24871
761	5.66317	3.0758670	29.0772	28.9154	7.150927	31.24879
762	5.65387	3.0759591	29.3328	29.1696	7.152076	31.25835
763	5.64788	3.0750831	29.5884	29.4238	7.153311	31.25394
764	5.63903	3.0741765	29.8411	29.6750	7.154929	31.25184
765	5.62791	3.0731475	30.0876	29.9202	7.156902	31.25047
766	5.61399	3.0722535	30.3402	30.1713	7.159167	31.25323
767	5.59851	3.0717270	30.5869	30.4166	7.161437	31.26156
768	5.58208	3.0701045	30.8394	30.6677	7.164411	31.25845
769	5.55848	3.0688741	31.0829	30.9098	7.168101	31.26641
770	5.53399	3.0683541	31.3386	31.1640	7.171533	31.28321
771	5.51648	3.0675341	31.5972	31.4212	7.174227	31.29014
772	5.49999	3.0658328	31.8408	31.6634	7.177261	31.28620
773	5.47999	3.0682385	32.0934	31.9146	7.178564	31.33187
774	5.47092	3.0703632	32.3491	32.1688	7.178607	31.36421
775	5.46812	3.0701368	32.6047	32.4230	7.179095	31.36415
776	5.46386	3.0699532	32.8452	32.6621	7.179747	31.36594
777	5.45910	3.0689982	33.1069	32.9224	7.180874	31.35947
778	5.45194	3.0680311	33.3595	33.1736	7.182318	31.35511
779	5.44253	3.0680129	33.6061	33.4188	7.183547	31.36358
780	5.43271	3.0710009	33.8648	33.6760	7.183225	31.40642
781	5.42346	3.0686437	34.1235	33.9332	7.185682	31.38830
782	5.40349	3.0676768	34.3792	34.1875	7.188780	31.39592
783	5.38429	3.0694279	34.6349	34.4418	7.190328	31.43361
784	5.37729	3.0693362	34.8966	34.7020	7.191287	31.43901
785	5.37164	3.0687609	35.1492	34.9532	7.192329	31.43767
786	5.36410	3.0686141	35.3988	35.2013	7.193388	31.44296
787	5.35835	3.0683877	35.6515	35.4526	7.194258	31.44567
788	5.35086	3.0652419	35.9041	35.7037	7.196917	31.41692
789	5.32893	3.0633821	36.1598	35.9580	7.200757	31.41628
790	5.29938	3.0602200	36.4154	36.2122	7.206287	31.40800
791	5.26452	3.0578969	36.6559	36.4512	7.212064	31.41423
792	5.23053	3.0558433	36.9267	36.7206	7.217591	31.42269
793	5.19930	3.0557581	37.1733	36.9658	7.221701	31.45096
794	5.17696	3.0573172	37.4320	37.2230	7.223769	31.48963
795	5.16890	3.0592922	37.7090	37.4984	7.223754	31.51959
796	5.17149	3.0598610	37.9889	37.7768	7.223117	31.52349
797	5.17487	3.0595552	38.2264	38.0129	7.222848	31.51670
798	5.17213	3.0567368	38.4852	38.2702	7.224735	31.48705
799	5.15771	3.0558140	38.7347	38.5183	7.227117	31.49002
800	5.14264	3.0607483	38.9843	38.7665	7.226409	31.56036
801	5.15060	3.0631217	39.2369	39.0176	7.224094	31.57977
802	5.16626	3.0636294	39.4835	39.2629	7.221790	31.57063
803	5.17830	3.0642290	39.7361	39.5140	7.219908	31.56596
804	5.18661	3.0646328	39.9918	39.7683	7.218616	31.56259
805	5.19278	3.0652570	40.2536	40.0285	7.217484	31.56374
806	5.19831	3.0654222	40.5033	40.2768	7.216684	31.56028
807	5.20264	3.0654100	40.7649	40.5370	7.216134	31.55592
808	5.20488	3.0651286	41.0085	40.7792	7.216001	31.55049
809	5.20513	3.0651348	41.2702	41.0394	7.215972	31.55020
810	5.20443	3.0652450	41.5198	41.2875	7.216008	31.55199
811	5.20344	3.0644312	41.7664	41.5327	7.216583	31.54354
812	5.19622	3.0614215	42.0129	41.7779	7.219152	31.51597
813	5.17407	3.0591773	42.2717	42.0351	7.223249	31.51118
814	5.14652	3.0584561	42.5213	42.2833	7.227229	31.52884
815	5.12316	3.0587132	42.7678	42.5284	7.230135	31.55372
816	5.10572	3.0578086	43.0173	42.7765	7.232903	31.55977
817	5.09047	3.0568857	43.2700	43.0278	7.235397	31.56353
818	5.07607	3.0564641	43.5165	43.2729	7.237508	31.57222
819	5.06401	3.0559875	43.7693	43.5242	7.239346	31.57807
820	5.05448	3.0556148	44.0249	43.7784	7.240798	31.58271
821	5.04506	3.0540199	44.2745	44.0266	7.242903	31.57329
822	5.03013	3.0524558	44.5302	44.2808	7.245711	31.56942
823	5.01288	3.0521262	44.7676	44.5168	7.248151	31.58188
824	5.00019	3.0523708	45.0294	44.7771	7.249682	31.59658
825	4.99404	3.0526764	45.2790	45.0253	7.250323	31.60579
826	4.99122	3.0514424	45.5285	45.2734	7.251373	31.59422
827	4.98562	3.0511493	45.7903	45.5337	7.252272	31.59604
828	4.98082	3.0511555	46.0399	45.7819	7.252903	31.60055
829	4.97715	3.0512717	46.2895	46.0301	7.253324	31.60524
830	4.97651	3.0516505	46.5361	46.2752	7.253207	31.61007
831	4.97686	3.0515467	46.7948	46.5325	7.253225	31.60842
832	4.97700	3.0524021	47.0445	46.7807	7.252743	31.61795
833	4.97938	3.0523411	47.3002	47.0350	7.252471	31.61487
834	4.98037	3.0522006	47.5619	47.2952	7.252425	31.61220
835	4.97923	3.0519930	47.8146	47.5465	7.252693	31.61078
836	4.97735	3.0521580	48.0703	47.8007	7.252855	31.61433
837	4.97596	3.0520237	48.3260	48.0549	7.253116	31.61398
838	4.97339	3.0509059	48.5663	48.2939	7.254070	31.60350
839	4.96571	3.0501180	48.8221	48.5481	7.255512	31.60164
840	4.95576	3.0498983	49.0627	48.7873	7.256941	31.60845
841	4.94705	3.0496542	49.3091	49.0324	7.258221	31.61380
842	4.93824	3.0493184	49.5679	49.2897	7.259565	31.61820
843	4.92929	3.0485552	49.8237	49.5440	7.261163	31.61783
844	4.91781	3.0480424	50.0824	49.8012	7.262954	31.62273
845	4.90495	3.0447153	50.3319	50.0493	7.266474	31.59665
846	4.88132	3.0412493	50.5847	50.3006	7.271489	31.57919
847	4.84867	3.0388644	50.8312	50.5457	7.277102	31.58271
848	4.81821	3.0378768	51.0778	50.7909	7.281662	31.60019
849	4.79458	3.0360781	51.3305	51.0421	7.285775	31.60187
850	4.77338	3.0359626	51.5739	51.2842	7.288640	31.62061
851	4.75899	3.0359323	51.8328	51.5415	7.290561	31.63385
852	4.74987	3.0359629	52.0793	51.7866	7.291753	31.64277
853	4.74460	3.0367070	52.3289	52.0348	7.292042	31.65625
854	4.74209	3.0369937	52.5785	52.2830	7.292220	31.66183
855	4.73908	3.0368840	52.8282	52.5312	7.292684	31.66331
856	4.73381	3.0364207	53.0778	52.7794	7.293642	31.66288
857	4.72692	3.0364513	53.3335	53.0336	7.294541	31.66969
858	4.72234	3.0367198	53.5770	53.2758	7.295002	31.67703
859	4.72017	3.0360186	53.8297	53.5270	7.295684	31.67089
860	4.71436	3.0346287	54.0824	53.7782	7.297229	31.66029
861	4.70289	3.0343789	54.3288	54.0233	7.298889	31.66824
862	4.69379	3.0341718	54.5695	54.2625	7.300213	31.67443
863	4.68818	3.0341780	54.8220	54.5136	7.300957	31.67973
864	4.68493	3.0341416	55.0686	54.7588	7.301413	31.68229
865	4.68277	3.0337210	55.3151	55.0039	7.301939	31.67939
866	4.67893	3.0335383	55.5587	55.2461	7.302553	31.68082
867	4.67455	3.0333738	55.8053	55.4913	7.303230	31.68299
868	4.67091	3.0332033	56.0519	55.7364	7.303812	31.68438
869	4.66792	3.0331729	56.2924	55.9755	7.304232	31.68678
870	4.66555	3.0330511	56.5451	56.2267	7.304618	31.68750
871	4.66319	3.0329171	56.7917	56.4720	7.305011	31.68809
872	4.66015	3.0328380	57.0474	56.7261	7.305464	31.68997
873	4.65705	3.0330575	57.2848	56.9622	7.305757	31.69535
874	4.65503	3.0333867	57.5374	57.2133	7.305847	31.70095
875	4.65444	3.0339537	57.7901	57.4646	7.305615	31.70794
876	4.65592	3.0342037	58.0459	57.7189	7.305286	31.70929
877	4.65754	3.0347585	58.3137	57.9852	7.304769	31.71402
878	4.66024	3.0353255	58.5634	58.2334	7.304101	31.71786
879	4.66246	3.0353317	58.7948	58.4635	7.303811	31.71569
880	4.66192	3.0352647	59.0474	58.7146	7.303926	31.71531
881	4.65980	3.0351306	59.2819	58.9477	7.304286	31.71567
882	4.65547	3.0344480	59.5437	59.2080	7.305244	31.71180
883	4.64687	3.0344420	59.7841	59.4470	7.306392	31.71985
884	4.63822	3.0347226	60.0308	59.6923	7.307386	31.73125
885	4.63301	3.0344667	60.2712	59.9313	7.308224	31.73317
886	4.62795	3.0331440	60.5269	60.1855	7.309638	31.72260
887	4.61970	3.0326566	60.7614	60.4187	7.311009	31.72475
888	4.61213	3.0325958	61.0110	60.6669	7.312050	31.73117
889	4.60712	3.0329738	61.2638	60.9182	7.312509	31.74022
890	4.60545	3.0330531	61.4951	61.1481	7.312691	31.74263
891	4.60477	3.0334067	61.7477	61.3993	7.312591	31.74725
892	4.60545	3.0336018	61.9883	61.6385	7.312396	31.74873
893	4.60727	3.0345833	62.2257	61.8746	7.311613	31.75823
894	4.61086	3.0351199	62.4723	62.1197	7.310844	31.76087
895	4.61125	3.0349614	62.7281	62.3740	7.310887	31.75854
896	4.60678	3.0345714	62.9686	62.6131	7.311703	31.75819
897	4.59932	3.0340107	63.2091	62.8523	7.313010	31.75875
898	4.59009	3.0341449	63.4526	63.0943	7.314164	31.76904
899	4.58375	3.0341573	63.7023	63.3426	7.315002	31.77514
900	4.57983	3.0339318	63.9427	63.5816	7.315654	31.77618
901	4.57679	3.0337247	64.1893	63.8268	7.316179	31.77658
902	4.57325	3.0333590	64.4360	64.0720	7.316858	31.77561
903	4.56795	3.0328594	64.6796	64.3142	7.317847	31.77480
904	4.56099	3.0324816	64.9139	64.5471	7.318988	31.77700
905	4.55328	3.0324208	65.1636	64.7954	7.320049	31.78357
906	4.54627	3.0322320	65.4010	65.0314	7.321091	31.78800
907	4.53945	3.0319945	65.6387	65.2677	7.322135	31.79169
908	4.53323	3.0316533	65.8852	65.5128	7.323159	31.79360
909	4.52705	3.0306907	66.1227	65.7489	7.324525	31.78825
910	4.51833	3.0302521	66.3662	65.9910	7.325936	31.79144
911	4.51068	3.0300878	66.5945	66.2180	7.327049	31.79677
912	4.50485	3.0295335	66.8503	66.4723	7.328142	31.79582
913	4.49809	3.0290279	67.0878	66.7084	7.329330	31.79635
914	4.48834	3.0290464	67.3252	66.9445	7.330621	31.80582
915	4.47786	3.0292963	67.5748	67.1926	7.331880	31.81869
916	4.46709	3.0296742	67.8185	67.4348	7.333106	31.83334
917	4.45539	3.0297841	68.0621	67.6770	7.334606	31.84577
918	4.44634	3.0298208	68.3300	67.9434	7.335796	31.85480
919	4.44047	3.0299062	68.6068	68.2186	7.336536	31.86132
920	4.43690	3.0305644	68.8413	68.4517	7.336645	31.87230
921	4.43660	3.0309971	69.0789	68.6879	7.336446	31.87750
922	4.43758	3.0317467	69.3225	68.9301	7.335899	31.88515
923	4.43846	3.0317529	69.5691	69.1752	7.335784	31.88425
924	4.43753	3.0314604	69.8065	69.4113	7.336079	31.88162
925	4.43469	3.0314179	70.0531	69.6565	7.336486	31.88375
926	4.43205	3.0307964	70.2997	69.9016	7.337194	31.87895
927	4.42648	3.0301811	70.5251	70.1257	7.338289	31.87707
928	4.41851	3.0301386	70.7686	70.3678	7.339380	31.88415
929	4.41293	3.0292675	71.0184	70.6161	7.340620	31.87928
930	4.40643	3.0283904	71.2618	70.8581	7.341988	31.87523
931	4.39748	3.0269713	71.4993	71.0942	7.343988	31.86724
932	4.38536	3.0267279	71.7368	71.3303	7.345747	31.87600
933	4.37657	3.0266976	71.9804	71.5725	7.346943	31.88403
934	4.37154	3.0266977	72.2149	71.8056	7.347620	31.88878
935	4.36875	3.0264664	72.4615	72.0508	7.348128	31.88865
936	4.36582	3.0254252	72.6929	72.2809	7.349115	31.87924
937	4.35977	3.0253218	72.9364	72.5229	7.349987	31.88377
938	4.35464	3.0254559	73.1802	72.7653	7.350602	31.89017
939	4.35220	3.0257543	73.4236	73.0073	7.350764	31.89589
940	4.35151	3.0260041	73.6641	73.2464	7.350720	31.89934
941	4.35210	3.0268994	73.8987	73.4796	7.350140	31.90909
942	4.35464	3.0276364	74.1421	73.7216	7.349389	31.91510
943	4.35801	3.0279288	74.3827	73.9607	7.348780	31.91512
944	4.36074	3.0282395	74.6141	74.1908	7.348245	31.91598
945	4.36309	3.0285624	74.8607	74.4360	7.347755	31.91735
946	4.36533	3.0286965	75.1013	74.6752	7.347386	31.91661
947	4.36690	3.0288184	75.3481	74.9205	7.347114	31.91640
948	4.36763	3.0292388	75.5855	75.1565	7.346784	31.92046
949	4.36866	3.0295922	75.8229	75.3926	7.346453	31.92347
950	4.37017	3.0298177	76.0604	75.6286	7.346129	31.92451
951	4.37217	3.0306586	76.3039	75.8707	7.345392	31.93225
952	4.37559	3.0309999	76.5354	76.1009	7.344749	31.93279
953	4.37911	3.0311705	76.7821	76.3461	7.344190	31.93125
954	4.38189	3.0313960	77.0225	76.5851	7.343697	31.93106
955	4.38429	3.0315119	77.2479	76.8091	7.343318	31.92998
956	4.38590	3.0316033	77.5005	77.0603	7.343058	31.92935
957	4.38703	3.0315120	77.7382	77.2966	7.342965	31.92708
958	4.38712	3.0317497	77.9848	77.5418	7.342824	31.92963
959	4.38781	3.0320606	78.2344	77.7899	7.342563	31.93247
960	4.38996	3.0331577	78.5267	78.0805	7.341663	31.94301
961	4.39519	3.0338221	78.7825	78.3347	7.340598	31.94556
962	4.40081	3.0342184	79.0078	78.5588	7.339631	31.94461
963	4.40428	3.0343038	79.2514	78.8009	7.339127	31.94212
964	4.40462	3.0343892	79.4920	79.0400	7.339039	31.94267
965	4.40335	3.0344563	79.7294	79.2761	7.339176	31.94456
966	4.40203	3.0344198	79.9760	79.5213	7.339378	31.94529
967	4.40066	3.0344565	80.2227	79.7664	7.339546	31.94692
968	4.39954	3.0344505	80.4632	80.0056	7.339705	31.94781
969	4.39861	3.0344262	80.6977	80.2387	7.339848	31.94831
970	4.39797	3.0343897	80.9412	80.4808	7.339959	31.94838
971	4.39724	3.0343044	81.1757	80.7139	7.340110	31.94798
972	4.39646	3.0343349	81.4132	80.9500	7.340203	31.94897
973	4.39597	3.0341826	81.6448	81.1802	7.340360	31.94756
974	4.39484	3.0339632	81.8791	81.4131	7.340639	31.94597
975	4.39240	3.0334574	82.1319	81.6644	7.341256	31.94233
976	4.38849	3.0339025	82.3571	81.8883	7.341531	31.95118
977	4.38659	3.0341830	82.6008	82.1306	7.341632	31.95617
978	4.38668	3.0342501	82.8504	82.3787	7.341587	31.95673
979	4.38688	3.0340917	83.0911	82.6180	7.341656	31.95458
980	4.38610	3.0339028	83.3285	82.8540	7.341873	31.95302
981	4.38380	3.0329703	83.5659	83.0900	7.342712	31.94426
982	4.37935	3.0328668	83.8005	83.3232	7.343368	31.94725
983	4.37515	3.0327877	84.0533	83.5745	7.343979	31.95027
984	4.37261	3.0327817	84.2817	83.8015	7.344326	31.95254
985	4.37110	3.0327574	84.5130	84.0315	7.344547	31.95361
986	4.37027	3.0328428	84.7597	84.2768	7.344616	31.95529
987	4.37002	3.0326966	84.9880	84.5037	7.344737	31.95371
988	4.36934	3.0327271	85.2346	84.7489	7.344816	31.95460
989	4.36885	3.0329710	85.4813	84.9941	7.344749	31.95779
990	4.36831	3.0337635	85.7219	85.2333	7.344378	31.96742
991	4.36822	3.0344280	85.9503	85.4604	7.344021	31.97515
992	4.36939	3.0347938	86.1939	85.7025	7.343663	31.97815
993	4.37120	3.0358852	86.4193	85.9265	7.342810	31.98900
994	4.37530	3.0379586	86.6568	86.1626	7.341096	32.00905
995	4.38273	3.0388307	86.8851	86.3896	7.339621	32.01189
996	4.38976	3.0393980	87.1166	86.6198	7.338370	32.01155
997	4.39514	3.0396847	87.3511	86.8529	7.337499	32.00956
998	4.39871	3.0401484	87.5946	87.0949	7.336769	32.01137
999	4.40159	3.0419910	87.8353	87.3342	7.335350	32.02991
1000	4.40418	3.0437242	88.0696	87.5671	7.334032	32.04745
1001	4.40614	3.0447008	88.3499	87.8457	7.333228	32.05678
1002	4.40750	3.0454822	88.6177	88.1120	7.332612	32.06442
1003	4.40838	3.0458913	88.8644	88.3572	7.332270	32.06820
1004	4.40882	3.0462027	89.0989	88.5903	7.332041	32.07128
1005	4.40936	3.0463798	89.3395	88.8294	7.331876	32.07270
1006	4.40985	3.0466973	89.5831	89.0716	7.331637	32.07580
1007	4.41029	3.0471126	89.8175	89.3047	7.331350	32.08009
1008	4.41039	3.0472470	90.0581	89.5438	7.331267	32.08143
1009	4.41054	3.0473264	90.3017	89.7860	7.331209	32.08209
1010	4.41073	3.0474181	90.5454	90.0283	7.331137	32.08285
1011	4.41093	3.0475708	90.7829	90.2643	7.331031	32.08432
1012	4.41083	3.0477052	91.0174	90.4974	7.330974	32.08586
1013	4.41098	3.0478457	91.2610	90.7396	7.330881	32.08723
1014	4.41078	3.0479985	91.4924	90.9697	7.330826	32.08908
1015	4.41054	3.0481084	91.7452	91.2209	7.330803	32.09047
1016	4.41019	3.0482062	91.9797	91.4540	7.330799	32.09183
1017	4.41010	3.0483162	92.2263	91.6992	7.330755	32.09308
1018	4.40990	3.0484506	92.4668	91.9383	7.330711	32.09471
1019	4.40951	3.0484873	92.7014	92.1714	7.330748	32.09540
1020	4.40926	3.0485118	92.9420	92.4106	7.330773	32.09580
1021	4.40907	3.0485730	93.1581	92.6255	7.330769	32.09660
1022	4.40878	3.0487563	93.4050	92.8708	7.330711	32.09889
1023	4.40858	3.0492938	93.6454	93.1098	7.330439	32.10522
1024	4.40873	3.0499168	93.8829	93.3459	7.330074	32.11221
1025	4.40907	3.0501612	94.1145	93.5761	7.329896	32.11461
1026	4.40941	3.0503140	94.3671	93.8272	7.329770	32.11593
1027	4.40975	3.0505095	94.6137	94.0723	7.329621	32.11775
1028	4.41005	3.0506806	94.8422	94.2995	7.329491	32.11934
1029	4.41044	3.0515542	95.0859	94.5417	7.328952	32.12901
1030	4.41127	3.0541572	95.3173	94.7717	7.327378	32.15839
1031	4.41186	3.0552940	95.5609	95.0140	7.326664	32.17094
1032	4.41122	3.0559236	95.7953	95.2469	7.326399	32.17877
1033	4.40961	3.0561499	96.0360	95.4862	7.326491	32.18286
1034	4.40780	3.0562722	96.2551	95.7040	7.326666	32.18594
1035	4.40574	3.0563029	96.4957	95.9431	7.326927	32.18817
1036	4.40320	3.0563274	96.7242	96.1703	7.327255	32.19082
1037	4.40037	3.0562725	96.9739	96.4185	7.327668	32.19282
1038	4.39695	3.0560098	97.2144	96.6576	7.328275	32.19298
1039	4.39250	3.0557226	97.4581	96.8998	7.329032	32.19385
1040	4.38815	3.0556371	97.6894	97.1297	7.329662	32.19698
1041	4.38473	3.0553439	97.9332	97.3721	7.330287	32.19678
1042	4.38072	3.0552340	98.1858	97.6232	7.330886	32.19928
1043	4.37623	3.0554602	98.4569	97.8927	7.331360	32.20617
1044	4.37286	3.0561816	98.6975	98.1318	7.331405	32.21775
1045	4.37193	3.0567929	98.9168	98.3499	7.331187	32.22568
1046	4.37261	3.0570070	99.1483	98.5799	7.330981	32.22739
1047	4.37369	3.0571110	99.3980	98.8282	7.330786	32.22742
1048	4.37432	3.0572516	99.6385	99.0673	7.330629	32.22832
1049	4.37491	3.0576368	99.8731	99.3005	7.330339	32.23212
1050	4.37540	3.0580160	100.1046	99.5306	7.330065	32.23595
1051	4.37554	3.0590861	100.3361	99.7606	7.329447	32.24816
1052	4.37740	3.0595814	100.5734	99.9966	7.328926	32.25200
1053	4.38023	3.0607740	100.8080	100.2297	7.327883	32.26302
1054	4.38468	3.0612022	101.0456	100.4659	7.327058	32.26354
1055	4.38888	3.0622482	101.2802	100.6991	7.325917	32.27151
1056	4.39338	3.0629456	101.4843	100.9020	7.324934	32.27514
1057	4.39778	3.0633493	101.5788	100.9959	7.324126	32.27549
1058	4.40086	3.0632942	101.5487	100.9660	7.323750	32.27185
1059	4.40276	3.0632392	101.5093	100.9268	7.323528	32.26937
1060	4.40486	3.0631045	101.5095	100.9270	7.323326	32.26574
1061	4.40662	3.0634104	101.5158	100.9333	7.322921	32.26758
1062	4.40770	3.0634716	101.5069	100.9244	7.322744	32.26725
1063	4.40814	3.0634104	101.4887	100.9064	7.322720	32.26611
1064	4.40780	3.0635634	101.4859	100.9036	7.322679	32.26823
1065	4.40819	3.0636429	101.4892	100.9068	7.322582	32.26877
1066	4.40853	3.0636551	101.4710	100.8888	7.322530	32.26859
1067	4.40873	3.0636735	101.4650	100.8828	7.322493	32.26862
1068	4.40848	3.0637041	101.4623	100.8801	7.322508	32.26921
1069	4.40838	3.0637163	101.4535	100.8713	7.322514	32.26946
1070	4.40819	3.0637897	101.4354	100.8534	7.322498	32.27051
1071	4.40843	3.0638081	101.4356	100.8535	7.322455	32.27049
1072	4.40843	3.0637285	101.4266	100.8446	7.322500	32.26956
1073	4.40799	3.0637163	101.4179	100.8359	7.322565	32.26986
1074	4.40780	3.0637285	101.4087	100.8268	7.322583	32.27019
1075	4.40731	3.0637285	101.4029	100.8211	7.322648	32.27068
1076	4.40750	3.0637469	101.3909	100.8091	7.322611	32.27070
1077	4.40760	3.0637897	101.3819	100.8002	7.322574	32.27111
1078	4.40814	3.0638386	101.3730	100.7913	7.322475	32.27116
1079	4.40848	3.0637040	101.3672	100.7856	7.322506	32.26926
1080	4.40892	3.0637163	101.3552	100.7736	7.322440	32.26898
1081	4.40902	3.0635878	101.3463	100.7648	7.322500	32.26739
1082	4.40863	3.0636122	101.3130	100.7317	7.322537	32.26808
1083	4.40882	3.0639915	101.2158	100.6351	7.322295	32.27235
1084	4.41073	3.0646034	101.0850	100.5051	7.321694	32.27768
1085	4.41508	3.0647930	100.9727	100.3934	7.321010	32.27569
1086	4.41914	3.0644870	100.8756	100.2969	7.320644	32.26821
1087	4.42007	3.0633795	100.7448	100.1669	7.321142	32.25447
1088	4.41645	3.0627432	100.5777	100.0007	7.321975	32.25068
1089	4.41283	3.0635263	100.3922	99.8164	7.322007	32.26343
1090	4.41347	3.0633488	100.2131	99.6384	7.322019	32.26083
1091	4.41386	3.0624250	100.0397	99.4661	7.322484	32.24977
1092	4.41156	3.0617215	99.8452	99.2727	7.323180	32.24392
1093	4.40814	3.0613789	99.6415	99.0701	7.323821	32.24338
1094	4.40496	3.0606510	99.4499	98.8798	7.324648	32.23810
1095	4.40105	3.0597520	99.2494	98.6805	7.325668	32.23155
1096	4.39636	3.0594585	99.0578	98.4900	7.326450	32.23281
1097	4.39343	3.0588531	98.8663	98.2996	7.327175	32.22871
1098	4.39113	3.0586757	98.6779	98.1124	7.327574	32.22899
1099	4.38947	3.0583883	98.4863	97.9219	7.327952	32.22736
1100	4.38805	3.0578686	98.2948	97.7315	7.328429	32.22278
1101	4.38624	3.0577401	98.0941	97.5321	7.328736	32.22315
1102	4.38522	3.0574589	97.8996	97.3387	7.329026	32.22097
1103	4.38409	3.0565785	97.7019	97.1422	7.329668	32.21191
1104	4.38175	3.0561567	97.5041	96.9456	7.330212	32.20938
1105	4.37970	3.0562728	97.3160	96.7586	7.330413	32.21283
1106	4.37989	3.0565600	97.1214	96.5651	7.330220	32.21609
1107	4.38214	3.0568228	96.9296	96.3745	7.329769	32.21705
1108	4.38512	3.0567616	96.7352	96.1812	7.329404	32.21353
1109	4.38717	3.0565048	96.5376	95.9848	7.329273	32.20863
1110	4.38844	3.0565169	96.3553	95.8036	7.329093	32.20762
1111	4.39025	3.0565902	96.1576	95.6071	7.328808	32.20681
1112	4.39260	3.0567919	95.9600	95.4106	7.328378	32.20697
1113	4.39577	3.0568223	95.7531	95.2050	7.327935	32.20433
1114	4.39875	3.0568223	95.5465	94.9996	7.327536	32.20152
1115	4.40169	3.0567366	95.3367	94.7911	7.327191	32.19777
1116	4.40467	3.0566693	95.1268	94.5824	7.326829	32.19418
1117	4.40750	3.0561557	94.9203	94.3771	7.326738	32.18554
1118	4.41019	3.0551104	94.7073	94.1654	7.326967	32.17085
1119	4.41274	3.0538575	94.4945	93.9539	7.327333	32.15389
1120	4.41450	3.0529958	94.2878	93.7484	7.327581	32.14224
1121	4.41577	3.0528797	94.0780	93.5398	7.327473	32.13976
1122	4.41714	3.0521281	93.8651	93.3283	7.327710	32.12978
1123	4.41743	3.0516576	93.6493	93.1137	7.327932	32.12413
1124	4.41743	3.0513215	93.4425	92.9081	7.328116	32.12032
1125	4.41733	3.0513826	93.2297	92.6966	7.328090	32.12123
1126	4.41777	3.0507105	93.0261	92.4942	7.328406	32.11308
1127	4.41782	3.0504356	92.8071	92.2765	7.328549	32.10994
1128	4.41767	3.0499896	92.5942	92.0649	7.328815	32.10500
1129	4.41733	3.0495193	92.3905	91.8624	7.329121	32.09996
1130	4.41665	3.0492933	92.1747	91.6479	7.329334	32.09811
1131	4.41650	3.0492138	91.9649	91.4393	7.329393	32.09743
1132	4.41650	3.0489756	91.7581	91.2337	7.329522	32.09476
1133	4.41650	3.0489205	91.5452	91.0221	7.329548	32.09423
1134	4.41684	3.0487556	91.3355	90.8137	7.329591	32.09208
1135	4.41733	3.0485723	91.1318	90.6111	7.329625	32.08957
1136	4.41743	3.0486028	90.9188	90.3994	7.329589	32.08994
1137	4.41792	3.0484867	90.7061	90.1880	7.329585	32.08822
1138	4.41836	3.0483889	90.4902	89.9734	7.329576	32.08676
1139	4.41904	3.0482850	90.2896	89.7740	7.329539	32.08499
1140	4.41978	3.0482056	90.0737	89.5593	7.329482	32.08346
1141	4.42036	3.0481689	89.8578	89.3447	7.329419	32.08257
1142	4.42061	3.0479368	89.6572	89.1453	7.329513	32.07973
1143	4.42036	3.0477047	89.4382	88.9276	7.329671	32.07738
1144	4.42017	3.0476924	89.2285	88.7191	7.329699	32.07753
1145	4.42051	3.0476496	89.0187	88.5106	7.329672	32.07681
1146	4.42076	3.0475396	88.8149	88.3079	7.329697	32.07539
1147	4.42085	3.0472709	88.5928	88.0872	7.329830	32.07228
1148	4.42017	3.0471426	88.3862	87.8818	7.329988	32.07156
1149	4.41978	3.0471853	88.1702	87.6671	7.330011	32.07254
1150	4.42061	3.0468982	87.9606	87.4587	7.330058	32.06850
1151	4.42080	3.0463487	87.7447	87.2442	7.330336	32.06202
1152	4.42007	3.0460312	87.5348	87.0354	7.330608	32.05914
1153	4.41978	3.0448224	87.3312	86.8330	7.331324	32.04546
1154	4.41909	3.0437237	87.1093	86.6125	7.332030	32.03345
1155	4.41787	3.0428143	86.8658	86.3704	7.332699	32.02418
1156	4.41679	3.0428021	86.6196	86.1257	7.332843	32.02520
1157	4.41650	3.0428447	86.4007	85.9080	7.332853	32.02609
1158	4.41655	3.0407823	86.1817	85.6903	7.334005	32.00215
1159	4.41342	3.0393181	85.9658	85.4758	7.335242	31.98826
1160	4.40853	3.0387631	85.7439	85.2551	7.336200	31.98665
1161	4.40418	3.0383727	85.5190	85.0316	7.336994	31.98643
1162	4.40071	3.0368968	85.3029	84.8168	7.338284	31.97273
1163	4.39621	3.0361894	85.0809	84.5961	7.339276	31.96896
1164	4.39289	3.0361162	84.8590	84.3755	7.339754	31.97144
1165	4.39103	3.0349760	84.6339	84.1517	7.340641	31.96008
1166	4.38825	3.0348541	84.4058	83.9250	7.341075	31.96147
1167	4.38634	3.0346407	84.1870	83.7075	7.341444	31.96094
1168	4.38517	3.0343053	83.9590	83.4807	7.341784	31.95829
1169	4.38434	3.0343053	83.7400	83.2631	7.341890	31.95920
1170	4.38468	3.0343661	83.5210	83.0453	7.341804	31.95969
1171	4.38556	3.0343661	83.3053	82.8309	7.341682	31.95894
1172	4.38683	3.0343660	83.0771	82.6041	7.341507	31.95783
1173	4.38830	3.0343050	82.8612	82.3894	7.341341	31.95580
1174	4.38918	3.0343658	82.6362	82.1658	7.341184	31.95577
1175	4.39045	3.0342134	82.4173	81.9482	7.341096	31.95288
1176	4.39093	3.0341036	82.1953	81.7274	7.341088	31.95124
1177	4.39089	3.0340913	81.9733	81.5068	7.341096	31.95125
1178	4.39113	3.0341034	81.7514	81.2861	7.341051	31.95127
1179	4.39162	3.0340912	81.5295	81.0656	7.340987	31.95076
1180	4.39201	3.0340606	81.3075	80.8449	7.340947	31.95014
1181	4.39250	3.0340179	81.0854	80.6241	7.340901	31.94928
1182	4.39235	3.0339386	80.8694	80.4094	7.340960	31.94861
1183	4.39245	3.0340178	80.6475	80.1888	7.340897	31.94955
1184	4.39318	3.0341823	80.4255	79.9681	7.340701	31.95086
1185	4.39445	3.0341030	80.1945	79.7384	7.340571	31.94883
1186	4.39533	3.0342126	79.9663	79.5116	7.340386	31.94936
1187	4.39670	3.0342186	79.7260	79.2727	7.340195	31.94823
1188	4.39768	3.0343648	79.4919	79.0400	7.339977	31.94910
1189	4.39905	3.0345355	79.2426	78.7921	7.339692	31.94989
1190	4.40095	3.0347000	78.9993	78.5503	7.339339	31.95008
1191	4.40291	3.0345658	78.7621	78.3144	7.339149	31.94674
1192	4.40413	3.0345169	78.5187	78.0725	7.339008	31.94511
1193	4.40506	3.0343888	78.2847	77.8399	7.338951	31.94284
1194	4.40618	3.0341815	78.0412	77.5978	7.338913	31.93946
1195	4.40755	3.0336145	77.8073	77.3652	7.339046	31.93166
1196	4.40741	3.0331512	77.5639	77.1233	7.339321	31.92653
1197	4.40589	3.0326940	77.3298	76.8905	7.339775	31.92279
1198	4.40374	3.0321820	77.0926	76.6547	7.340345	31.91903
1199	4.40120	3.0320357	76.8584	76.4219	7.340761	31.91991
1200	4.39885	3.0315420	76.6182	76.1831	7.341346	31.91655
1201	4.39612	3.0313469	76.3717	75.9381	7.341815	31.91705
1202	4.39392	3.0310300	76.1072	75.6751	7.342281	31.91562
1203	4.39181	3.0307131	75.8638	75.4332	7.342734	31.91409
1204	4.38966	3.0302439	75.6297	75.2005	7.343280	31.91082
1205	4.38703	3.0294213	75.3896	74.9617	7.344091	31.90392
1206	4.38331	3.0294518	75.1492	74.7228	7.344563	31.90799
1207	4.38131	3.0289339	74.9183	74.4932	7.345117	31.90401
1208	4.37862	3.0282394	74.6871	74.2633	7.345863	31.89864
1209	4.37515	3.0280444	74.4439	74.0216	7.346430	31.89985
1210	4.37247	3.0279104	74.2035	73.7826	7.346858	31.90100
1211	4.37081	3.0271855	73.9663	73.5468	7.347484	31.89429
1212	4.36880	3.0269418	73.7259	73.3078	7.347883	31.89351
1213	4.36748	3.0266982	73.4919	73.0752	7.348192	31.89206
1214	4.36621	3.0264240	73.2516	72.8363	7.348510	31.89022
1215	4.36450	3.0260951	73.0145	72.6005	7.348919	31.88816
1216	4.36294	3.0262412	72.7773	72.3647	7.349039	31.89149
1217	4.36279	3.0262777	72.5429	72.1317	7.349032	31.89217
1218	4.36431	3.0273008	72.3058	71.8960	7.348245	31.90275
1219	4.37002	3.0281534	72.0747	71.6662	7.346994	31.90727
1220	4.37794	3.0285005	71.8375	71.4304	7.345737	31.90377
1221	4.38507	3.0290608	71.6062	71.2005	7.344463	31.90351
1222	4.39186	3.0293044	71.3782	70.9738	7.343415	31.89989
1223	4.39739	3.0299683	71.1258	70.7229	7.342297	31.90241
1224	4.40345	3.0305409	70.8916	70.4901	7.341161	31.90333
1225	4.40990	3.0307541	70.6574	70.2572	7.340175	31.89968
1226	4.41513	3.0307113	70.4295	70.0306	7.339498	31.89424
1227	4.41851	3.0307539	70.1982	69.8007	7.339019	31.89159
1228	4.42154	3.0309670	69.9580	69.5619	7.338489	31.89126
1229	4.42477	3.0311802	69.7208	69.3260	7.337933	31.89074
1230	4.42775	3.0312837	69.4987	69.1053	7.337472	31.88917
1231	4.43083	3.0313019	69.2616	68.8696	7.337046	31.88653
1232	4.43337	3.0309118	69.0336	68.6429	7.336923	31.87965
1233	4.43484	3.0306619	68.7962	68.4068	7.336863	31.87544
1234	4.43572	3.0303632	68.5531	68.1652	7.336908	31.87124
1235	4.43636	3.0301195	68.3281	67.9415	7.336955	31.86791
1236	4.43646	3.0297904	68.0877	67.7024	7.337122	31.86411
1237	4.43650	3.0294491	67.8565	67.4727	7.337303	31.86021
1238	4.43694	3.0292175	67.6162	67.2338	7.337369	31.85721
1239	4.43988	3.0286631	67.3912	67.0100	7.337286	31.84804
1240	4.44536	3.0286995	67.1600	66.7802	7.336530	31.84330
1241	4.45226	3.0286628	66.9291	66.5507	7.335627	31.83633
1242	4.45950	3.0287845	66.6886	66.3116	7.334589	31.83088
1243	4.46640	3.0291621	66.4606	66.0849	7.333452	31.82873
1244	4.47394	3.0295092	66.2264	65.8520	7.332248	31.82561
1245	4.48212	3.0297649	65.9922	65.6192	7.331012	31.82082
1246	4.48971	3.0300572	65.7368	65.3653	7.329832	31.81703
1247	4.49701	3.0302521	65.4934	65.1233	7.328746	31.81239
1248	4.50382	3.0300570	65.2502	64.8815	7.327945	31.80369
1249	4.51093	3.0307636	65.0251	64.6577	7.326599	31.80516
1250	4.51833	3.0309341	64.7880	64.4220	7.325515	31.80014
1251	4.52494	3.0311655	64.5568	64.1921	7.324500	31.79657
1252	4.53019	3.0313909	64.3318	63.9684	7.323672	31.79425
1253	4.53573	3.0313420	64.0915	63.7295	7.322958	31.78848
1254	4.53970	3.0309946	63.8573	63.4967	7.322620	31.78075
1255	4.54166	3.0309092	63.6262	63.2669	7.322402	31.77799
1256	4.54308	3.0316586	63.4011	63.0431	7.321788	31.78542
1257	4.54794	3.0323167	63.1669	62.8103	7.320769	31.78849
1258	4.55564	3.0326274	62.9359	62.5806	7.319568	31.78481
1259	4.56408	3.0327491	62.7108	62.3568	7.318375	31.77822
1260	4.57163	3.0324503	62.4857	62.1330	7.317535	31.76762
1261	4.57723	3.0321699	62.2515	61.9002	7.316945	31.75911
1262	4.58213	3.0322063	62.0233	61.6733	7.316268	31.75494
1263	4.58640	3.0322001	61.7862	61.4376	7.315700	31.75089
1264	4.58964	3.0319928	61.5581	61.2108	7.315381	31.74549
1265	4.59234	3.0318830	61.3300	60.9840	7.315079	31.74174
1266	4.59392	3.0315660	61.0957	60.7511	7.315042	31.73669
1267	4.59455	3.0315416	60.8677	60.5243	7.314966	31.73590
1268	4.59554	3.0320534	60.6304	60.2884	7.314544	31.74100
1269	4.59863	3.0327176	60.4024	60.0618	7.313757	31.74584
1270	4.60418	3.0330223	60.1712	59.8319	7.312846	31.74415
1271	4.60929	3.0331501	59.9400	59.6020	7.312092	31.74085
1272	4.61321	3.0330830	59.7119	59.3753	7.311604	31.73642
1273	4.61675	3.0330585	59.4809	59.1456	7.311144	31.73286
1274	4.62058	3.0332656	59.2528	58.9188	7.310515	31.73170
1275	4.62550	3.0337227	59.0278	58.6951	7.309604	31.73239
1276	4.63169	3.0338689	58.7965	58.4651	7.308697	31.72826
1277	4.63753	3.0334359	58.5684	58.2384	7.308159	31.71776
1278	4.64151	3.0330823	58.3434	58.0147	7.307824	31.70998
1279	4.64353	3.0329908	58.1093	57.7819	7.307603	31.70711
1280	4.64500	3.0329481	57.8842	57.5582	7.307426	31.70531
1281	4.64707	3.0327773	57.6590	57.3343	7.307243	31.70147
1282	4.64894	3.0324542	57.4280	57.1045	7.307170	31.69607
1283	4.64953	3.0322043	57.2059	56.8837	7.307226	31.69273
1284	4.64953	3.0318507	56.9840	56.6632	7.307418	31.68875
1285	4.64923	3.0315947	56.7558	56.4363	7.307595	31.68619
1286	4.64903	3.0314789	56.5277	56.2095	7.307680	31.68515
1287	4.64894	3.0313874	56.3056	55.9886	7.307738	31.68430
1288	4.64899	3.0313081	56.0716	55.7559	7.307771	31.68345
1289	4.64987	3.0313872	55.8496	55.5353	7.307604	31.68363
1290	4.65154	3.0314542	55.6093	55.2964	7.307340	31.68292
1291	4.65356	3.0313871	55.3750	55.0634	7.307105	31.68033
1292	4.65533	3.0313626	55.1529	54.8426	7.306879	31.67847
1293	4.65665	3.0314418	54.9250	54.6160	7.306653	31.67823
1294	4.65842	3.0315392	54.7029	54.3951	7.306360	31.67777
1295	4.66024	3.0316549	54.4776	54.1712	7.306049	31.67748
1296	4.66192	3.0317645	54.2435	53.9384	7.305761	31.67726
1297	4.66398	3.0321118	54.0216	53.7178	7.305289	31.67941
1298	4.66713	3.0327150	53.7966	53.4941	7.304531	31.68348
1299	4.67205	3.0326845	53.5653	53.2641	7.303892	31.67854
1300	4.67608	3.0327697	53.3403	53.0404	7.303306	31.67578
1301	4.67893	3.0328671	53.1152	52.8166	7.302869	31.67429
1302	4.68134	3.0328853	52.8899	52.5926	7.302534	31.67230
1303	4.68311	3.0329279	52.6651	52.3691	7.302271	31.67121
1304	4.68503	3.0330558	52.4460	52.1512	7.301941	31.67097
1305	4.68720	3.0330191	52.2209	51.9274	7.301670	31.66858
1306	4.68897	3.0334335	51.9868	51.6947	7.301200	31.67179
1307	4.69241	3.0339577	51.7678	51.4769	7.300447	31.67466
1308	4.69866	3.0340612	51.5489	51.2593	7.299559	31.66999
1309	4.70531	3.0338660	51.3299	51.0416	7.298784	31.66150
1310	4.71107	3.0338354	51.1017	50.8147	7.298035	31.65576
1311	4.71653	3.0337499	50.8765	50.5908	7.297355	31.64967
1312	4.72175	3.0337193	50.6546	50.3701	7.296677	31.64444
1313	4.72588	3.0336887	50.4265	50.1434	7.296142	31.64026
1314	4.72953	3.0338044	50.2076	49.9257	7.295592	31.63822
1315	4.73288	3.0339872	49.9795	49.6989	7.295042	31.63725
1316	4.73652	3.0342919	49.7573	49.4780	7.294387	31.63739
1317	4.74091	3.0347795	49.5383	49.2603	7.293532	31.63894
1318	4.74716	3.0364805	49.3133	49.0365	7.291758	31.65268
1319	4.75919	3.0389990	49.0942	48.8187	7.288771	31.67034
1320	4.77831	3.0410241	48.8752	48.6010	7.285124	31.67552
1321	4.80040	3.0421587	48.6502	48.3773	7.281583	31.66762
1322	4.82029	3.0431592	48.4312	48.1595	7.278409	31.66028
1323	4.83727	3.0442026	48.2062	47.9358	7.275596	31.65620
1324	4.85312	3.0450936	47.9750	47.7059	7.273016	31.65146
1325	4.86779	3.0459358	47.7592	47.4913	7.270621	31.64727
1326	4.88113	3.0463324	47.5371	47.2705	7.268646	31.63924
1327	4.89230	3.0466986	47.3119	47.0466	7.266973	31.63293
1328	4.90253	3.0474005	47.0960	46.8320	7.265240	31.63136
1329	4.91341	3.0478583	46.8709	46.6081	7.263557	31.62638
1330	4.92320	3.0484383	46.6457	46.3842	7.261950	31.62383
1331	4.93310	3.0491038	46.4299	46.1697	7.260283	31.62216
1332	4.94299	3.0495067	46.2108	45.9518	7.258760	31.61749
1333	4.95200	3.0499280	45.9951	45.7373	7.257345	31.61387
1334	4.96012	3.0501416	45.7728	45.5163	7.256160	31.60871
1335	4.96695	3.0498361	45.5540	45.2987	7.255428	31.59884
1336	4.97032	3.0476558	45.3196	45.0657	7.256175	31.57078
1337	4.97091	3.0492252	45.0976	44.8450	7.255233	31.58830
1338	4.97042	3.0489564	44.8847	44.6332	7.255440	31.58580
1339	4.96903	3.0486388	44.6627	44.4126	7.255790	31.58358
1340	4.96740	3.0485532	44.4468	44.1979	7.256046	31.58426
1341	4.96611	3.0482356	44.2278	43.9801	7.256383	31.58195
1342	4.96467	3.0479486	44.0026	43.7562	7.256723	31.58014
1343	4.96294	3.0479791	43.7867	43.5415	7.256928	31.58223
1344	4.96215	3.0480706	43.5679	43.3240	7.256977	31.58414
1345	4.96264	3.0482965	43.3427	43.1000	7.256783	31.58637
1346	4.96532	3.0491330	43.1267	42.8853	7.255970	31.59352
1347	4.97121	3.0497070	42.9076	42.6674	7.254879	31.59461
1348	4.97819	3.0502322	42.6919	42.4529	7.253673	31.59411
1349	4.98542	3.0509834	42.4727	42.2350	7.252311	31.59596
1350	4.99365	3.0516980	42.2536	42.0171	7.250839	31.59644
1351	5.00277	3.0522843	42.0348	41.7996	7.249322	31.59461
1352	5.01203	3.0527363	41.8157	41.5818	7.247859	31.59111
1353	5.02096	3.0536710	41.5936	41.3609	7.246178	31.59345
1354	5.03112	3.0544531	41.3778	41.1463	7.244418	31.59286
1355	5.04168	3.0542634	41.1678	40.9376	7.243138	31.58079
1356	5.04878	3.0538478	40.9488	40.7198	7.242434	31.56942
1357	5.05185	3.0532549	40.7299	40.5022	7.242350	31.55984
1358	5.05309	3.0536398	40.5169	40.2904	7.241974	31.56317
1359	5.05721	3.0545686	40.2949	40.0696	7.240925	31.57000
1360	5.06550	3.0552041	40.0789	39.8549	7.239493	31.56952
1361	5.07672	3.0570132	39.8600	39.6372	7.237040	31.57967
1362	5.09429	3.0588288	39.6380	39.4164	7.233758	31.58387
1363	5.11511	3.0601371	39.4189	39.1986	7.230332	31.57922
1364	5.13598	3.0611460	39.2029	38.9838	7.227065	31.57109
1365	5.15472	3.0615861	38.9869	38.7690	7.224384	31.55849
1366	5.16855	3.0619774	38.7649	38.5483	7.222370	31.55000
1367	5.17915	3.0623076	38.5521	38.3367	7.220810	31.54385
1368	5.18721	3.0622830	38.3330	38.1189	7.219771	31.53607
1369	5.19214	3.0623685	38.1139	37.9011	7.219080	31.53250
1370	5.19587	3.0622522	37.8980	37.6864	7.218653	31.52776
1371	5.19791	3.0610348	37.6820	37.4716	7.219041	31.51208
1372	5.19423	3.0582646	37.4600	37.2508	7.221012	31.48413
1373	5.18358	3.0576349	37.2500	37.0420	7.222732	31.48710
1374	5.17621	3.0575799	37.0372	36.8305	7.223715	31.49352
1375	5.17248	3.0559416	36.8151	36.6096	7.225082	31.47848
1376	5.16626	3.0549698	36.6052	36.4009	7.226412	31.47337
1377	5.16000	3.0538637	36.3864	36.1833	7.227822	31.46678
1378	5.15268	3.0523667	36.1733	35.9715	7.229580	31.45672
1379	5.14552	3.0522445	35.9545	35.7539	7.230574	31.46218
1380	5.14219	3.0523116	35.7231	35.5238	7.230966	31.46620
1381	5.14279	3.0530692	35.5012	35.3031	7.230473	31.47438
1382	5.14886	3.0538696	35.2850	35.0882	7.229244	31.47788
1383	5.15980	3.0546577	35.0692	34.8736	7.227387	31.47666
1384	5.17467	3.0559532	34.8562	34.6618	7.224745	31.47750
1385	5.19283	3.0590281	34.6433	34.4501	7.220716	31.49550
1386	5.22082	3.0612661	34.4211	34.2291	7.215868	31.49471
1387	5.25061	3.0620181	34.2113	34.0205	7.211592	31.47531
1388	5.27479	3.0632902	33.9956	33.8061	7.207768	31.46713
1389	5.29634	3.0636998	33.7795	33.5911	7.204751	31.45163
1390	5.31376	3.0638403	33.5695	33.3824	7.202416	31.43697
1391	5.32624	3.0645744	33.3505	33.1646	7.200402	31.43369
1392	5.33997	3.0674506	33.1374	32.9528	7.197078	31.45351
1393	5.36040	3.0675544	32.9277	32.7442	7.194377	31.43562
1394	5.37514	3.0649776	32.7117	32.5295	7.193847	31.39271
1395	5.37944	3.0645491	32.5048	32.3237	7.193516	31.38393
1396	5.38474	3.0655036	32.2889	32.1090	7.192316	31.38988
1397	5.39604	3.0661705	32.0759	31.8972	7.190494	31.38696
1398	5.40940	3.0655338	31.8631	31.6856	7.189105	31.36736
1399	5.41935	3.0648605	31.6501	31.4738	7.188175	31.35054
1400	5.42761	3.0643892	31.4342	31.2591	7.187355	31.33760
1401	5.43332	3.0635570	31.2212	31.0473	7.187058	31.32296
1402	5.43852	3.0636854	31.0053	30.8327	7.186313	31.31966
1403	5.44628	3.0638443	30.7893	30.6179	7.185221	31.31431
1404	5.45429	3.0639604	30.5764	30.4061	7.184121	31.30825
1405	5.46336	3.0640459	30.3634	30.1944	7.182901	31.30087
1406	5.47333	3.0645414	30.1534	29.9856	7.181347	31.29727
1407	5.48460	3.0656182	29.9344	29.7678	7.179315	31.29903
1408	5.50134	3.0662851	29.7275	29.5621	7.176799	31.29105
1409	5.51774	3.0667255	29.5177	29.3534	7.174448	31.28085
1410	5.53218	3.0677965	29.3108	29.1477	7.172015	31.27958
1411	5.54819	3.0682860	29.1041	28.9421	7.169692	31.27030
1412	5.56245	3.0688735	28.8942	28.7335	7.167542	31.26376
1413	5.57495	3.0694549	28.6842	28.5247	7.165623	31.25879
1414	5.58655	3.0696690	28.4682	28.3098	7.164014	31.25052
1415	5.59534	3.0702444	28.2613	28.1041	7.162575	31.24893
1416	5.60429	3.0712363	28.0546	27.8986	7.160898	31.25188
1417	5.61534	3.0722221	27.8446	27.6897	7.158953	31.25281
1418	5.62761	3.0725588	27.6317	27.4781	7.157197	31.24530
1419	5.63737	3.0730364	27.4188	27.2664	7.155689	31.24172
1420	5.64672	3.0745555	27.2120	27.0607	7.153684	31.25021
1421	5.65980	3.0748065	26.9988	26.8488	7.151871	31.24100
1422	5.67118	3.0736484	26.7890	26.6401	7.151019	31.21754
1423	5.67631	3.0737586	26.5670	26.4193	7.150298	31.21413
1424	5.68265	3.0740893	26.3540	26.2076	7.149307	31.21207
1425	5.69489	3.0775327	26.1443	25.9990	7.145925	31.23948
1426	5.72260	3.0803581	25.9160	25.7720	7.140893	31.24561
1427	5.75562	3.0797508	25.6818	25.5391	7.136988	31.20834
1428	5.78190	3.0826384	25.4658	25.3244	7.132117	31.21647
1429	5.80719	3.0852203	25.2497	25.1095	7.127539	31.22209
1430	5.83699	3.0859500	25.0368	24.8978	7.123359	31.20281
1431	5.86388	3.0866245	24.8238	24.6859	7.119581	31.18562
1432	5.89529	3.0886491	24.6201	24.4834	7.114530	31.17935
1433	5.93721	3.0890905	24.4071	24.2716	7.108974	31.14576
1434	5.97176	3.0868073	24.1972	24.0629	7.105767	31.08864
1435	5.99707	3.0863898	23.9813	23.8482	7.102768	31.06088
1436	6.03507	3.0860642	23.7744	23.6425	7.098114	31.02253
1437	6.07423	3.0856895	23.5615	23.4307	7.093342	30.98265
1438	6.11078	3.0864743	23.3606	23.2309	7.088308	30.95809
1439	6.16539	3.0879525	23.1508	23.0223	7.080643	30.92480
1440	6.22725	3.0886146	22.9439	22.8166	7.072492	30.87597
1441	6.27670	3.0880004	22.7340	22.6078	7.066568	30.82443
1442	6.31711	3.0889081	22.5271	22.4021	7.061014	30.79797
1443	6.35228	3.0896381	22.3263	22.2025	7.056214	30.77431
1444	6.38923	3.0894658	22.1132	21.9906	7.051654	30.73917
1445	6.42770	3.0892260	21.9005	21.7790	7.046940	30.70198
1446	6.46404	3.0895509	21.6937	21.5734	7.042212	30.67295
1447	6.49678	3.0899003	21.4898	21.3707	7.037928	30.64749
1448	6.52836	3.0901086	21.2800	21.1620	7.033863	30.62155
1449	6.55564	3.0902802	21.0730	20.9562	7.030357	30.59909
1450	6.57405	3.0904211	20.8691	20.7534	7.027980	30.58426
1451	6.58850	3.0905191	20.6534	20.5389	7.026119	30.57251
1452	6.59951	3.0906417	20.4372	20.3240	7.024677	30.56411
1453	6.60677	3.0906907	20.2304	20.1183	7.023741	30.55825
1454	6.61618	3.0905739	20.0234	19.9125	7.022618	30.54866
1455	6.64059	3.0901439	19.8103	19.7005	7.019779	30.52229
1456	6.68450	3.0894007	19.6067	19.4981	7.014664	30.47517
1457	6.73346	3.0888417	19.3815	19.2741	7.008831	30.42568
1458	6.78061	3.0884361	19.1778	19.0715	7.003152	30.37956
1459	6.82213	3.0880797	18.9617	18.8567	6.998155	30.33907
1460	6.85784	3.0876374	18.7579	18.6540	6.993927	30.30283
1461	6.89151	3.0872320	18.5480	18.4452	6.989938	30.26886
1462	6.92376	3.0869065	18.3382	18.2366	6.986088	30.23706
1463	6.95738	3.0852803	18.1280	18.0276	6.982709	30.19004
1464	6.99954	3.0843290	17.9121	17.8129	6.977939	30.14290
1465	7.03655	3.0804100	17.7083	17.6103	6.975260	30.06834
1466	7.09030	3.0759596	17.4984	17.4015	6.970761	29.97365
1467	7.14997	3.0733123	17.2884	17.1927	6.964650	29.89351
1468	7.20533	3.0707884	17.0757	16.9811	6.959012	29.81864
1469	7.26658	3.0686203	16.8656	16.7723	6.952478	29.74274
1470	7.34384	3.0648370	16.6619	16.5696	6.944745	29.63609
1471	7.42355	3.0597405	16.4488	16.3578	6.937339	29.51378
1472	7.50685	3.0542500	16.2389	16.1490	6.929678	29.38476
1473	7.59764	3.0523365	16.0198	15.9312	6.919393	29.28793
1474	7.67220	3.0435243	15.8129	15.7254	6.914376	29.13215
1475	7.75204	3.0358618	15.5969	15.5106	6.908153	28.98476
1476	7.85436	3.0333064	15.3992	15.3140	6.896762	28.87315
1477	7.96749	3.0264631	15.1952	15.1112	6.886058	28.70829
1478	8.10041	3.0180862	14.9886	14.9057	6.873636	28.51229
1479	8.26753	3.0135170	14.7846	14.7029	6.855285	28.32964
1480	8.41119	3.0030583	14.5807	14.5001	6.842512	28.10633
1481	8.55807	2.9998573	14.3770	14.2975	6.826064	27.95681
1482	8.70718	2.9979562	14.1669	14.0886	6.808805	27.81990
1483	8.86491	2.9998239	13.9632	13.8860	6.788887	27.71565
1484	9.05537	3.0021167	13.7565	13.6804	6.764937	27.59107
1485	9.25714	3.0023757	13.5524	13.4776	6.740645	27.43828
1486	9.45808	2.9995083	13.3518	13.2780	6.717916	27.25612
1487	9.62582	2.9987298	13.1600	13.0873	6.698326	27.12148
1488	9.76069	2.9993050	12.9593	12.8877	6.682122	27.02592
1489	9.88815	2.9959419	12.7645	12.6939	6.668500	26.89742
1490	10.01559	2.9998972	12.5698	12.5003	6.651857	26.84195
1491	10.15498	3.0015409	12.3753	12.3069	6.634843	26.75518
1492	10.28399	2.9988141	12.1743	12.1071	6.620903	26.63369
1493	10.38320	2.9925281	11.9796	11.9135	6.611919	26.49984
1494	10.44279	2.9862049	11.7697	11.7047	6.607561	26.39495
1495	10.47751	2.9887075	11.5780	11.5141	6.602500	26.39430
1496	10.54265	2.9864765	11.3742	11.3114	6.595836	26.32562
1497	10.63786	2.9770947	11.1643	11.1026	6.588579	26.16623
1498	10.73006	2.9708500	10.9575	10.8970	6.580400	26.04011
1499	10.80582	2.9657405	10.7627	10.7033	6.573670	25.93713
1500	10.87371	2.9528769	10.5681	10.5097	6.570947	25.76545
1501	10.96373	2.9454697	10.3703	10.3130	6.563469	25.63141
1502	11.05696	2.9364796	10.1817	10.1255	6.556242	25.48061
1503	11.14591	2.9250582	9.9809	9.9258	6.550457	25.31030
1504	11.23665	2.9213904	9.7831	9.7291	6.541413	25.21334
1505	11.32557	2.9119537	9.5854	9.5326	6.534837	25.06330
1506	11.42960	2.9074039	9.3845	9.3328	6.524615	24.95003
1507	11.52598	2.9037024	9.1839	9.1332	6.514956	24.85043
1508	11.60875	2.8967789	8.9800	8.9304	6.508111	24.73005
1509	11.69352	2.8932920	8.7730	8.7246	6.499720	24.64110
1510	11.77503	2.8933751	8.5722	8.5250	6.490352	24.58808
1511	11.84023	2.8900396	8.3805	8.3343	6.484164	24.51402
1512	11.90560	2.8888359	8.1798	8.1347	6.477153	24.45996
1513	11.98373	2.8864475	7.9790	7.9350	6.469145	24.38671
1514	12.05570	2.8804481	7.7841	7.7412	6.463205	24.28419
1515	12.12371	2.8747342	7.5803	7.5385	6.457607	24.18725
1516	12.18793	2.8673413	7.3855	7.3448	6.453066	24.07754
1517	12.24607	2.8604265	7.1818	7.1422	6.449031	23.97650
1518	12.30049	2.8535895	6.9840	6.9455	6.445384	23.87885
1519	12.34854	2.8460860	6.7710	6.7337	6.442702	23.77938
1520	12.38239	2.8333176	6.5581	6.5220	6.443573	23.64075
1521	12.40951	2.8247835	6.3481	6.3131	6.443635	23.54547
1522	12.43175	2.8186782	6.1473	6.1134	6.443352	23.47565
1523	12.45155	2.8159682	5.9345	5.9018	6.442094	23.43856
1524	12.46729	2.8104150	5.7366	5.7050	6.442342	23.37798
1525	12.48477	2.8071276	5.5266	5.4962	6.441557	23.33713
1526	12.50304	2.8056826	5.3229	5.2936	6.440004	23.31267
1527	12.51772	2.8045695	5.1160	5.0878	6.438738	23.29349
1528	12.53139	2.8037643	4.9058	4.8788	6.437474	23.27776
1529	12.54212	2.8024265	4.7021	4.6762	6.436740	23.25898
1530	12.55016	2.7940216	4.5012	4.4765	6.438902	23.17735
1531	12.55592	2.7807325	4.2914	4.2677	6.443111	23.05263
1532	12.56090	2.7757005	4.0783	4.0559	6.444383	23.00377
1533	12.56666	2.7646808	3.8684	3.8471	6.447757	22.89989
1534	12.57441	2.7537419	3.6584	3.6383	6.450873	22.79563
1535	12.58371	2.7318650	3.4425	3.4235	6.457809	22.59104
1536	12.59549	2.7217525	3.2386	3.2208	6.460152	22.49215
1537	12.60816	2.7050146	3.0133	2.9967	6.464808	22.33270
1538	12.62186	2.6937310	2.8035	2.7880	6.467346	22.22232
1539	12.63413	2.6845907	2.5874	2.5731	6.469263	22.13234
1540	12.64586	2.6791049	2.3712	2.3582	6.469905	22.07586
1541	12.65807	2.6747750	2.1522	2.1404	6.470067	22.02960
1542	12.67023	2.6641359	1.9301	1.9195	6.472535	21.92635
1543	12.68690	2.6584273	1.7020	1.6927	6.472676	21.86515
1544	12.70437	2.6526883	1.4920	1.4838	6.472735	21.80329
1545	12.72269	2.6470118	1.2881	1.2810	6.472669	21.74157
1546	12.74403	2.6396140	1.1055	1.0995	6.472874	21.66267
1547	12.76871	2.6330509	0.9778	0.9724	6.472385	21.58948
1548	12.79624	2.6304769	0.9139	0.9089	6.470116	21.55066
1549	12.81980	2.6289792	0.8775	0.8727	6.467918	21.52381
1550	12.83649	2.6241646	0.8440	0.8394	6.467719	21.47109
1551	12.85282	2.6255570	0.8229	0.8183	6.465317	21.47436
1552	12.86099	2.6263602	0.7803	0.7760	6.464078	21.47697
1553	12.86419	2.6191337	0.7471	0.7430	6.466314	21.41027
1554	12.87351	2.6189662	0.6557	0.6521	6.465290	21.40354
1555	12.87745	2.6209641	0.5159	0.5131	6.464110	21.41929
1556	12.87248	2.6206695	0.3942	0.3920	6.464792	21.41948
1557	12.86728	2.6183946	0.2663	0.2649	6.466217	21.40203
1558	12.86770	2.6149546	0.1415	0.1407	6.467408	21.37095
1559	12.87509	2.6125199	0.0169	0.0168	6.467426	21.34498
1560	12.88223	2.6106972	-0.0805	-0.0801	6.467251	21.32464
1561	12.88471	2.6077336	-0.0772	-0.0768	6.468031	21.29667
1562	12.87993	2.6083562	-0.0742	-0.0738	6.468364	21.30494
1563	12.85270	2.6097171	-0.0741	-0.0737	6.471044	21.33244
1564	12.81950	2.6115686	-0.0770	-0.0766	6.474243	21.36775
1565	12.79515	2.6132589	-0.0740	-0.0736	6.476470	21.39668
1566	12.77396	2.6152785	-0.0739	-0.0735	6.478210	21.42681
1567	12.75568	2.6180375	-0.0828	-0.0824	6.479341	21.46200
1568	12.73770	2.6182975	-0.0737	-0.0733	6.481344	21.47452
1569	12.70979	2.4414358	-0.0765	-0.0761	6.549015	19.90300
1570	12.67354	0.6782079	-0.0736	-0.0732	7.192581	4.97933
1571	12.63046	0.4956471	-0.0795	-0.0790	7.263212	3.56520
1572	12.59861	0.5501367	-0.0732	-0.0728	7.249252	3.98838
1573	12.57153	0.5558484	-0.0794	-0.0790	7.251519	4.03551
1574	12.55430	0.5714049	-0.0763	-0.0759	7.248771	4.15819
1575	12.54182	0.4732092	-0.0731	-0.0727	7.285092	3.40130
1576	12.52887	0.4052427	-0.0762	-0.0758	7.310721	2.88468
1577	12.51652	0.3518578	-0.0791	-0.0787	7.331068	2.48345
1578	12.50508	0.3160846	-0.0791	-0.0787	7.345142	2.21715
1579	12.49315	0.2911849	-0.0729	-0.0725	7.355547	2.03321
1580	12.48160	0.3189018	-0.0758	-0.0754	7.348001	2.23949
1581	12.46926	0.3225779	-0.0788	-0.0783	7.348753	2.26760
1582	12.45675	0.3272365	-0.0757	-0.0753	7.349195	2.30310
1583	12.44150	0.2873911	-0.0785	-0.0781	7.365273	2.00790
1584	12.41907	0.2671801	-0.0723	-0.0719	7.375804	1.85990
1585	12.39111	0.2415591	-0.0785	-0.0780	7.389065	1.67317
1586	12.36430	0.2295691	-0.0844	-0.0840	7.397529	1.58673
1587	12.34335	0.2163519	-0.0815	-0.0810	7.405439	1.49133
1588	12.32445	0.2064342	-0.0844	-0.0840	7.411902	1.42005
1589	12.30436	0.1920932	-0.0782	-0.0778	7.420042	1.31702
1590	12.29018	0.1836370	-0.0811	-0.0806	7.425227	1.25653
1591	12.28160	0.1784711	-0.0872	-0.0867	7.428380	1.21965
1592	12.27029	0.1773812	-0.0841	-0.0836	7.430629	1.21217
1593	12.25850	0.2006019	-0.0841	-0.0836	7.424814	1.38020
1594	12.24583	0.2406878	-0.0838	-0.0833	7.413362	1.67319
1595	12.23328	0.2556147	-0.0809	-0.0804	7.410354	1.78360
1596	12.22055	0.2858092	-0.0808	-0.0803	7.402107	2.00786
1597	12.20688	0.2991662	-0.0775	-0.0771	7.399759	2.10811
1598	12.19274	0.2731759	-0.0807	-0.0803	7.411045	1.91547
1599	12.17801	0.2389150	-0.0777	-0.0772	7.425219	1.66314
1600	12.16233	0.2126047	-0.0836	-0.0831	7.436780	1.47110
1601	12.14204	0.1886966	-0.0837	-0.0833	7.448257	1.29805
1602	12.11920	0.1763852	-0.0835	-0.0830	7.456230	1.20981
1603	12.09508	0.1654976	-0.0805	-0.0801	7.463940	1.13214
1604	12.07079	0.1551174	-0.0864	-0.0859	7.471507	1.05834
1605	12.04635	0.1476931	-0.0896	-0.0891	7.478113	1.00588
1606	12.02742	0.1477227	-0.0803	-0.0798	7.481299	1.00659
1607	12.01866	0.1487796	-0.0741	-0.0737	7.482424	1.01439
1608	12.01387	0.1561545	-0.0831	-0.0827	7.480758	1.06737
1609	12.01039	0.2047864	-0.0831	-0.0826	7.464867	1.41981
1610	12.00755	0.2222990	-0.0801	-0.0796	7.459350	1.54825
1611	12.00643	0.2361850	-0.0861	-0.0856	7.454766	1.65055
1612	12.00619	0.2132977	-0.0768	-0.0764	7.462662	1.48225
1613	12.00518	0.1947832	-0.0770	-0.0766	7.469152	1.34703
1614	12.00335	0.1801887	-0.0889	-0.0884	7.474419	1.24106
1615	11.99768	0.1695134	-0.0767	-0.0763	7.478988	1.16402
1616	11.98846	0.1618495	-0.0799	-0.0794	7.483131	1.10904
1617	11.98001	0.1543813	-0.0766	-0.0762	7.487075	1.05559
1618	11.97440	0.1458011	-0.0706	-0.0702	7.490907	0.99424
1619	11.97056	0.1394780	-0.0767	-0.0763	7.493677	0.94916
1620	11.96802	0.1327822	-0.0796	-0.0792	7.496346	0.90151
1621	11.96797	0.1292814	-0.0827	-0.0822	7.497524	0.87662
1622	11.96873	0.1280046	-0.0827	-0.0823	7.497819	0.86754
1623	11.98137	0.1219631	-0.0826	-0.0822	7.497685	0.82443
1624	11.99165	0.1191579	-0.0763	-0.0759	7.496872	0.80438
1625	11.99921	0.1189725	-0.0855	-0.0850	7.495650	0.80291
1626	12.00678	0.1341991	-0.0823	-0.0818	7.489307	0.91066
1627	12.01352	0.1548467	-0.0761	-0.0757	7.481257	1.05800
1628	12.01642	0.1584811	-0.0793	-0.0789	7.479546	1.08401
1629	12.01996	0.1584414	-0.0761	-0.0757	7.478961	1.08362
1630	12.02434	0.1587688	-0.0792	-0.0788	7.478113	1.08585
1631	12.03120	0.1623064	-0.0760	-0.0756	7.475766	1.11108
1632	12.04120	0.1660250	-0.0761	-0.0757	7.472829	1.13755
1633	12.04948	0.1651230	-0.0822	-0.0818	7.471738	1.13081
1634	12.05611	0.1619554	-0.0820	-0.0815	7.471686	1.10783
1635	12.06760	0.1587225	-0.0760	-0.0756	7.470837	1.08428
1636	12.07885	0.1558968	-0.0789	-0.0785	7.469889	1.06370
1637	12.08655	0.1515936	-0.0758	-0.0754	7.470032	1.03269
1638	12.09484	0.1487499	-0.0820	-0.0816	7.469584	1.01214
1639	12.10847	0.1451598	-0.0820	-0.0815	7.468485	0.98617
1640	12.12122	0.1415652	-0.0758	-0.0753	7.467534	0.96025
1641	12.13207	0.1377203	-0.0789	-0.0785	7.466983	0.93265
1642	12.13688	0.1341990	-0.0850	-0.0845	7.467340	0.90756
1643	12.14055	0.1314152	-0.0758	-0.0754	7.467641	0.88775
1644	12.14423	0.1292062	-0.0819	-0.0814	7.467752	0.87204
1645	12.14898	0.1273876	-0.0757	-0.0753	7.467552	0.85908
1646	12.15379	0.1252997	-0.0787	-0.0783	7.467430	0.84423
1647	12.15818	0.1324812	-0.0757	-0.0753	7.464322	0.89488
1648	12.16316	0.1826551	-0.0816	-0.0811	7.446756	1.25364
1649	12.16584	0.2055107	-0.0757	-0.0753	7.438599	1.41927
1650	12.16524	0.2086671	-0.0787	-0.0782	7.437630	1.44228
1651	12.16299	0.2176351	-0.0785	-0.0781	7.434964	1.50780
1652	12.15800	0.2258636	-0.0816	-0.0811	7.432996	1.56821
1653	12.15580	0.2170730	-0.0816	-0.0811	7.436352	1.50398
1654	12.15355	0.2058242	-0.0786	-0.0781	7.440544	1.42201
1655	12.15135	0.1975161	-0.0785	-0.0781	7.443722	1.36168
1656	12.15212	0.1914297	-0.0877	-0.0872	7.445648	1.31750
1657	12.15497	0.1858028	-0.0784	-0.0780	7.447068	1.27667
1658	12.15438	0.1807991	-0.0785	-0.0781	7.448851	1.24053
1659	12.15254	0.1770448	-0.0845	-0.0840	7.450420	1.21351
1660	12.14987	0.1742277	-0.0815	-0.0811	7.451814	1.19329
1661	12.14939	0.1711746	-0.0754	-0.0750	7.452917	1.17133
1662	12.14678	0.1679859	-0.0783	-0.0779	7.454424	1.14848
1663	12.14198	0.1648975	-0.0785	-0.0781	7.456264	1.12644
1664	12.13599	0.1616905	-0.0784	-0.0779	7.458343	1.10360
1665	12.13035	0.1582166	-0.0874	-0.0870	7.460450	1.07887
1666	12.12780	0.1544109	-0.0760	-0.0756	7.462150	1.05170
1667	12.12573	0.1692808	-0.0850	-0.0845	7.457522	1.15843
1668	12.12383	0.2357244	-0.0788	-0.0784	7.435323	1.64205
1669	12.12027	0.2559688	-0.0879	-0.0875	7.428974	1.79154
1670	12.11772	0.2608884	-0.0849	-0.0844	7.427706	1.82809
1671	12.11594	0.2716992	-0.0880	-0.0875	7.424276	1.90838
1672	12.11304	0.2571514	-0.0855	-0.0851	7.429770	1.80064
1673	12.11049	0.2427320	-0.0881	-0.0876	7.435145	1.69424
1674	12.10895	0.2303247	-0.0971	-0.0966	7.439649	1.60299
1675	12.10729	0.2194508	-0.0845	-0.0840	7.443638	1.52331
1676	12.10480	0.2111654	-0.0810	-0.0805	7.446875	1.46282
1677	12.10136	0.2038297	-0.0812	-0.0807	7.449943	1.40943
1678	12.09858	0.1980067	-0.0751	-0.0747	7.452385	1.36714
1679	12.09538	0.1932970	-0.0812	-0.0808	7.454517	1.33303
1680	12.09318	0.1890013	-0.0812	-0.0807	7.456338	1.30193
1681	12.09354	0.1846829	-0.0842	-0.0837	7.457738	1.27062
1682	12.09277	0.1805289	-0.0749	-0.0745	7.459270	1.24059
1683	12.09218	0.1767250	-0.0810	-0.0806	7.460652	1.21313
1684	12.09135	0.1729502	-0.0841	-0.0836	7.462062	1.18592
1685	12.09182	0.1693473	-0.0749	-0.0745	7.463194	1.15994
1686	12.09218	0.1661443	-0.0812	-0.0807	7.464211	1.13688
1687	12.09105	0.1671761	-0.0780	-0.0776	7.464053	1.14434
1688	12.09164	0.2319417	-0.0779	-0.0775	7.441983	1.61561
1689	12.09218	0.2590090	-0.0779	-0.0775	7.432599	1.81539
1690	12.08987	0.2554774	-0.0750	-0.0746	7.434200	1.78934
1691	12.08643	0.2483668	-0.0810	-0.0805	7.437218	1.73692
1692	12.08572	0.2204473	-0.0778	-0.0774	7.446901	1.53148
1693	12.08400	0.2033717	-0.0841	-0.0836	7.453005	1.40674
1694	12.08234	0.1897212	-0.0810	-0.0805	7.457913	1.30752
1695	12.08412	0.1803588	-0.0838	-0.0834	7.460779	1.23965
1696	12.08809	0.2080869	-0.0808	-0.0804	7.450717	1.44098
1697	12.09152	0.2083163	-0.0809	-0.0805	7.450064	1.44252
