Scan Count	Temperature [ITS-90, deg C]	Conductivity [S/m]	Pressure, Strain Gauge [db]	Depth [salt water, m]	Oxygen Saturation, Weiss [ml/l]	Salinity, Practical [PSU]
1	15.23364	0.0029433	0.0201	0.0200	7.010903	0.02123
2	15.22743	0.0030544	0.0059	0.0059	7.011817	0.02181
3	15.20862	0.0030976	0.0091	0.0090	7.014656	0.02204
4	15.18000	0.0031162	0.0091	0.0091	7.018990	0.02214
5	15.15837	0.0032026	0.0061	0.0061	7.022251	0.02260
6	15.15715	0.0031872	0.0060	0.0060	7.022441	0.02252
7	15.16044	0.0030853	0.0030	0.0030	7.021964	0.02198
8	15.16128	0.1276855	0.0182	0.0181	6.988614	0.79736
9	12.70072	2.9066930	0.5508	0.5478	6.380785	24.11351
10	10.92832	2.9848853	0.9434	0.9382	6.551753	26.03832
11	10.79492	2.9967557	0.9282	0.9231	6.562367	26.24779
12	10.71895	3.0162471	0.9312	0.9261	6.563288	26.49109
13	10.68864	3.0264093	0.9343	0.9292	6.562684	26.61164
14	10.69691	3.0248141	0.9282	0.9231	6.562376	26.59015
15	10.69783	3.0203774	0.9313	0.9261	6.564056	26.54644
16	10.66964	3.0176342	0.9313	0.9261	6.568401	26.54026
17	10.64895	3.0162903	0.9283	0.9232	6.571326	26.54223
18	10.63937	3.0108253	0.9344	0.9293	6.574634	26.49610
19	10.65259	3.0211689	0.9466	0.9414	6.568938	26.58695
20	10.65630	3.0341523	0.9466	0.9414	6.563278	26.71039
21	10.67073	3.0438058	0.9465	0.9413	6.557734	26.79365
22	10.67580	3.0537521	0.9497	0.9444	6.553148	26.88660
23	10.67854	3.0573330	0.9497	0.9445	6.551394	26.91939
24	10.67615	3.0618084	0.9467	0.9415	6.549866	26.96467
25	10.70536	3.0713051	0.9467	0.9415	6.542716	27.03545
26	10.74237	3.0791947	0.9528	0.9475	6.535341	27.08477
27	10.76484	3.0857487	0.9528	0.9476	6.530165	27.13181
28	10.79584	3.0933822	0.9528	0.9475	6.523599	27.18295
29	10.82400	3.0977113	0.9498	0.9446	6.518686	27.20407
30	10.85041	3.1020797	0.9498	0.9446	6.513962	27.22684
31	10.87076	3.1062106	0.9530	0.9477	6.510022	27.25178
32	10.90621	3.1094514	0.9469	0.9417	6.504742	27.25686
33	10.94078	3.1128227	0.9500	0.9448	6.499518	27.26385
34	10.96813	3.1130317	0.9440	0.9388	6.496364	27.24558
35	10.98579	3.1144778	0.9471	0.9419	6.493810	27.24648
36	11.01795	3.1168969	0.9411	0.9359	6.489248	27.24603
37	11.05164	3.1194213	0.9473	0.9421	6.484480	27.24545
38	11.08023	3.1213244	0.9473	0.9421	6.480533	27.24266
39	11.09857	3.1232711	0.9504	0.9452	6.477718	27.24786
40	11.11945	3.1249409	0.9536	0.9484	6.474729	27.24850
41	11.13250	3.1259885	0.9537	0.9484	6.472862	27.24895
42	11.14850	3.1261918	0.9598	0.9546	6.470999	27.23908
43	11.17450	3.1268449	0.9569	0.9517	6.467844	27.22616
44	11.19884	3.1261790	0.9601	0.9548	6.465394	27.20180
45	11.21794	3.1261973	0.9632	0.9579	6.463261	27.18790
46	11.24092	3.1267518	0.9602	0.9550	6.460488	27.17631
47	11.25766	3.1266838	0.9543	0.9491	6.458653	27.16334
48	11.27556	3.1267823	0.9636	0.9583	6.456624	27.15112
49	11.29301	3.1265294	0.9637	0.9584	6.454784	27.13587
50	11.30681	3.1264922	0.9609	0.9556	6.453265	27.12539
51	11.32062	3.1267263	0.9640	0.9587	6.451641	27.11750
52	11.33542	3.1258139	0.9702	0.9649	6.450353	27.09790
53	11.34918	3.1244085	0.9643	0.9590	6.449371	27.07437
54	11.34942	3.1236814	0.9675	0.9621	6.449628	27.06724
55	11.35958	3.1233054	0.9676	0.9623	6.448646	27.05620
56	11.36801	3.1218143	0.9648	0.9595	6.448289	27.03577
57	11.36673	3.1219437	0.9710	0.9657	6.448381	27.03794
58	11.37806	3.1216478	0.9742	0.9688	6.447238	27.02683
59	11.38765	3.1212473	0.9713	0.9660	6.446329	27.01600
60	11.39585	3.1208591	0.9715	0.9662	6.445570	27.00631
61	11.40131	3.1206620	0.9716	0.9663	6.445040	27.00043
62	11.40166	3.1189743	0.9749	0.9695	6.445655	26.98405
63	11.39846	3.1187342	0.9720	0.9667	6.446103	26.98409
64	11.39567	3.1176997	0.9691	0.9638	6.446814	26.97623
65	11.40102	3.1172440	0.9694	0.9640	6.446396	26.96798
66	11.40538	3.1160126	0.9695	0.9642	6.446389	26.95303
67	11.39986	3.1141044	0.9667	0.9614	6.447742	26.93882
68	11.37957	3.1124860	0.9669	0.9616	6.450623	26.93812
69	11.38317	3.1137352	0.9671	0.9618	6.449738	26.94744
70	11.38835	3.1119998	0.9643	0.9590	6.449836	26.92709
71	11.38887	3.1118828	0.9705	0.9652	6.449823	26.92558
72	11.39271	3.1112244	0.9677	0.9624	6.449652	26.91650
73	11.38439	3.1093358	0.9618	0.9565	6.451308	26.90450
74	11.36179	3.1072571	0.9590	0.9537	6.454629	26.90106
75	11.33711	3.1083767	0.9683	0.9630	6.456942	26.92973
76	11.34111	3.1078662	0.9685	0.9632	6.456694	26.92193
77	11.34489	3.1065563	0.9626	0.9573	6.456783	26.90665
78	11.34315	3.1066793	0.9658	0.9605	6.456929	26.90909
79	11.33943	3.1049946	0.9661	0.9608	6.457997	26.89567
80	11.33618	3.1048347	0.9632	0.9579	6.458422	26.89651
81	11.32794	3.1032918	0.9635	0.9582	6.459940	26.88774
82	11.31412	3.1033289	0.9697	0.9644	6.461466	26.89814
83	11.31360	3.1028801	0.9730	0.9676	6.461698	26.89422
84	11.31140	3.1029355	0.9762	0.9708	6.461923	26.89635
85	11.31488	3.1015280	0.9704	0.9651	6.462082	26.88035
86	11.30728	3.1004650	0.9706	0.9653	6.463344	26.87570
87	11.29493	3.0998077	0.9830	0.9776	6.464979	26.87838
88	11.29382	3.0997462	0.9863	0.9809	6.465126	26.87859
89	11.29127	3.0980875	0.9804	0.9750	6.466057	26.86456
90	11.28043	3.0975348	0.9806	0.9752	6.467483	26.86715
91	11.27742	3.0966626	0.9778	0.9724	6.468160	26.86099
92	11.26780	3.0958827	0.9750	0.9697	6.469539	26.86051
93	11.25939	3.0944336	0.9752	0.9699	6.471044	26.85273
94	11.25146	3.0942065	0.9815	0.9761	6.472020	26.85632
95	11.25169	3.0937030	0.9787	0.9733	6.472191	26.85133
96	11.24671	3.0924814	0.9758	0.9705	6.473225	26.84324
97	11.22314	3.0834505	1.0035	0.9980	6.479395	26.77375
98	10.88453	3.0702566	1.5363	1.5279	6.522791	26.89330
99	10.64587	3.0903089	2.5074	2.4936	6.541858	27.26399
100	10.71307	3.1430049	3.4481	3.4291	6.513092	27.72681
101	10.86302	3.1690046	4.3675	4.3435	6.485945	27.86586
102	10.89698	3.1821629	5.3174	5.2881	6.476953	27.96758
103	10.47259	3.1809017	6.3219	6.2871	6.524832	28.28111
104	9.90409	3.1949924	7.3234	7.2831	6.583153	28.86803
105	9.53740	3.2131278	8.3463	8.3003	6.617189	29.34626
106	9.21729	3.2229102	9.3722	9.3205	6.649572	29.70914
107	8.84873	3.2297207	10.4286	10.3710	6.688979	30.08805
108	8.69832	3.2311020	11.4910	11.4275	6.705763	30.22982
109	8.65369	3.2312651	12.5291	12.4598	6.710877	30.26921
110	8.60003	3.2317404	13.5976	13.5224	6.716904	30.31966
111	8.57700	3.2317784	14.6478	14.5668	6.719576	30.33936
112	8.55081	3.2319101	15.6920	15.6052	6.722577	30.36278
113	8.53461	3.2316796	16.7301	16.6375	6.724580	30.37386
114	8.48526	3.2321674	17.8169	17.7182	6.730115	30.42097
115	8.44259	3.2325116	18.8824	18.7778	6.734943	30.46093
116	8.40949	3.2324124	19.9692	19.8585	6.738861	30.48804
117	8.36454	3.2321198	21.0834	20.9665	6.744252	30.52342
118	8.32543	3.2324389	22.2189	22.0956	6.748689	30.56019
119	8.30015	3.2321586	23.3603	23.2307	6.751788	30.57872
120	8.21440	3.2305868	24.5202	24.3841	6.762549	30.63639
121	8.14620	3.2307501	25.6862	25.5435	6.770483	30.69717
122	8.12637	3.2306384	26.8612	26.7119	6.772880	30.71283
123	8.11371	3.2307512	28.0576	27.9016	6.774335	30.72458
124	8.09673	3.2301838	29.2571	29.0943	6.776611	30.73295
125	8.07037	3.2297475	30.4778	30.3081	6.779929	30.75093
126	8.02697	3.2293864	31.7137	31.5371	6.785218	30.78469
127	7.93425	3.2271850	32.9588	32.7751	6.797172	30.84251
128	7.71194	3.2229835	34.2190	34.0282	6.825429	30.99424
129	7.49706	3.2156119	35.4823	35.2843	6.854484	31.10677
130	7.36610	3.2123806	36.7640	36.5587	6.871698	31.18911
131	7.30041	3.2105383	38.0546	37.8421	6.880477	31.22790
132	7.25883	3.2093250	39.3362	39.1164	6.886076	31.25180
133	7.23034	3.2077755	40.6361	40.4089	6.890271	31.26024
134	7.16289	3.2035136	41.9421	41.7075	6.900471	31.27466
135	7.07842	3.1995464	43.2815	43.0392	6.912613	31.30771
136	7.02400	3.1979120	44.6058	44.3560	6.920014	31.33883
137	6.99386	3.1961098	45.9452	45.6877	6.924570	31.34608
138	6.94033	3.1923508	47.2694	47.0044	6.932925	31.35337
139	6.87377	3.1888047	48.6120	48.3392	6.942780	31.37486
140	6.81694	3.1867688	49.9697	49.6892	6.950730	31.40397
141	6.79439	3.1859002	51.3244	51.0361	6.953935	31.41449
142	6.74386	3.1809606	52.7065	52.4102	6.962574	31.40615
143	6.63464	3.1766446	54.0916	53.7874	6.978116	31.45844
144	6.56337	3.1765651	55.4372	55.1252	6.986929	31.52253
145	6.53248	3.1766340	56.7797	56.4600	6.990718	31.55115
146	6.51009	3.1766099	58.1405	57.8130	6.993512	31.57093
147	6.49074	3.1764678	59.5317	59.1961	6.995993	31.58661
148	6.48294	3.1764994	60.8986	60.5551	6.996966	31.59353
149	6.47693	3.1763572	62.1803	61.8294	6.997803	31.59692
150	6.47232	3.1759297	63.4437	63.0855	6.998613	31.59589
151	6.42054	3.1732335	64.6828	64.3174	7.006375	31.61353
152	6.36795	3.1735444	65.8337	65.4616	7.012731	31.66521
153	6.35930	3.1754855	66.9420	66.5635	7.012841	31.69417
154	6.35178	3.1765959	68.0655	67.6804	7.013232	31.71291
155	6.31323	3.1748975	69.1889	68.7972	7.018876	31.72949
156	6.31431	3.1769257	70.3215	69.9233	7.017740	31.75039
157	6.32412	3.1770996	71.4511	71.0463	7.016465	31.74264
158	6.31972	3.1770690	72.6264	72.2147	7.017049	31.74584
159	6.30843	3.1780122	73.8290	73.4102	7.017991	31.76624
160	6.30158	3.1780251	75.0164	74.5908	7.018856	31.77221
161	6.27676	3.1773930	76.1977	75.7652	7.022269	31.78782
162	6.21681	3.1747398	77.3243	76.8851	7.031060	31.81391
163	6.15826	3.1736434	78.4661	78.0202	7.038899	31.85602
164	6.14930	3.1750574	79.6140	79.1613	7.039313	31.87960
165	6.15012	3.1753182	80.7740	80.3146	7.039104	31.88118
166	6.15078	3.1766146	81.9554	81.4890	7.038385	31.89441
167	6.15139	3.1774274	83.1398	82.6664	7.037920	31.90231
168	6.13948	3.1772419	84.3485	83.8680	7.039517	31.91086
169	6.10667	3.1760084	85.5633	85.0756	7.044246	31.92740
170	6.08038	3.1743535	86.7844	86.2895	7.048384	31.93311
171	6.05508	3.1726616	88.0022	87.5001	7.052424	31.93750
172	6.03634	3.1746027	89.2141	88.7049	7.053783	31.97622
173	6.03919	3.1774680	90.4745	89.9578	7.051984	32.00489
174	6.00894	3.1778347	91.7259	91.2017	7.055583	32.03695
175	5.98809	3.1779221	92.9804	92.4488	7.058158	32.05704
176	5.96416	3.1793805	94.2713	93.7320	7.060411	32.09538
177	5.95301	3.1806529	95.5471	95.0002	7.061169	32.11956
178	5.94562	3.1813607	96.8138	96.2593	7.061751	32.13388
179	5.93467	3.1836948	98.1503	97.5879	7.061936	32.16974
180	5.90754	3.1863898	99.4596	98.8894	7.063946	32.22510
181	5.89144	3.1868560	100.7535	100.1756	7.065735	32.24503
182	5.88967	3.1868626	102.0050	101.4195	7.065979	32.24619
183	5.88957	3.1868878	103.2503	102.6574	7.066007	32.24596
184	5.88957	3.1869193	104.4622	103.8620	7.066018	32.24573
185	5.88947	3.1870066	105.6376	105.0304	7.066011	32.24624
186	5.88947	3.1870690	106.8038	106.1896	7.066005	32.24637
187	5.88927	3.1871749	107.9974	107.3760	7.066002	32.24718
188	5.88866	3.1873243	109.1971	108.5685	7.066027	32.24885
189	5.88765	3.1875669	110.3938	109.7579	7.066054	32.25195
190	5.88633	3.1879150	111.5782	110.9353	7.066063	32.25654
191	5.88350	3.1884619	112.7597	112.1096	7.066159	32.26480
192	5.88052	3.1887418	113.9503	113.2930	7.066412	32.27020
193	5.87900	3.1890465	115.1499	114.4854	7.066469	32.27449
194	5.87824	3.1890904	116.3436	115.6719	7.066568	32.27513
195	5.87789	3.1893082	117.5890	116.9097	7.066527	32.27730
196	5.87698	3.1894141	118.8161	118.1294	7.066612	32.27877
197	5.87662	3.1895263	120.0189	119.3249	7.066625	32.27978
198	5.87617	3.1896633	121.2065	120.5052	7.066637	32.28118
199	5.87576	3.1898066	122.3758	121.6674	7.066639	32.28260
200	5.87480	3.1901362	123.5816	122.8659	7.066615	32.28663
201	5.87126	3.1909565	124.6352	123.9131	7.066654	32.29870
202	5.87126	3.1912672	124.8460	124.1226	7.066497	32.30208
203	5.87521	3.1912920	124.7615	124.0386	7.065992	32.29863
204	5.87718	3.1912795	124.6892	123.9668	7.065751	32.29664
205	5.87743	3.1911677	124.6199	123.8979	7.065776	32.29518
206	5.87677	3.1912174	124.5476	123.8261	7.065831	32.29640
207	5.87748	3.1912545	124.2653	123.5454	7.065717	32.29628
208	5.87895	3.1910307	123.7821	123.0651	7.065640	32.29260
209	5.88112	3.1905460	123.2197	122.5062	7.065608	32.28537
210	5.87930	3.1901979	122.6056	121.8959	7.066001	32.28350
211	5.87890	3.1900176	121.8789	121.1736	7.066129	32.28222
212	5.87925	3.1897813	121.0184	120.3183	7.066188	32.27965
213	5.87915	3.1896257	120.1213	119.4267	7.066261	32.27843
214	5.87890	3.1894950	119.2029	118.5138	7.066340	32.27765
215	5.87885	3.1894202	118.2875	117.6040	7.066365	32.27730
216	5.87854	3.1891776	117.3751	116.6971	7.066508	32.27532
217	5.87920	3.1890656	116.4505	115.7781	7.066463	32.27388
218	5.87976	3.1889286	115.5292	114.8624	7.066444	32.27226
219	5.88021	3.1887731	114.5681	113.9071	7.066447	32.27055
220	5.88077	3.1885057	113.5857	112.9306	7.066494	32.26749
221	5.88269	3.1881948	112.5942	111.9451	7.066394	32.26265
222	5.88370	3.1879585	111.6027	110.9596	7.066369	32.25952
223	5.88563	3.1876167	110.6021	109.9650	7.066284	32.25434
224	5.88704	3.1873369	109.6105	108.9794	7.066231	32.25033
225	5.88836	3.1871317	108.6282	108.0030	7.066152	32.24725
226	5.88886	3.1870568	107.6427	107.0235	7.066106	32.24641
227	5.88861	3.1869075	106.6572	106.0439	7.066192	32.24545
228	5.88897	3.1868513	105.6809	105.0734	7.066156	32.24496
229	5.88932	3.1868014	104.7107	104.1090	7.066116	32.24453
230	5.88922	3.1867017	103.7405	103.1446	7.066158	32.24398
231	5.88937	3.1866580	102.7671	102.1771	7.066140	32.24381
232	5.88912	3.1865521	101.8029	101.2187	7.066205	32.24334
233	5.88983	3.1863283	100.8449	100.2664	7.066212	32.24062
234	5.89089	3.1859058	99.8806	99.3078	7.066277	32.23533
235	5.89706	3.1846327	98.9317	98.3646	7.066147	32.21565
236	5.91133	3.1836577	97.9857	97.4243	7.064855	32.19160
237	5.92353	3.1822547	97.0398	96.4840	7.064042	32.16475
238	5.93554	3.1809759	96.0908	95.5407	7.063188	32.13949
239	5.94202	3.1802620	95.1328	94.5883	7.062729	32.12581
240	5.94835	3.1789526	94.1654	93.6267	7.062596	32.10563
241	5.95337	3.1784560	93.2043	92.6713	7.062207	32.09578
242	5.95656	3.1777671	92.2399	91.7127	7.062144	32.08552
243	5.96751	3.1769914	91.2696	90.7481	7.061161	32.06694
244	5.98495	3.1769476	90.4241	89.9077	7.058995	32.05036
245	6.00356	3.1771456	89.5724	89.0610	7.056559	32.03537
246	6.03172	3.1754024	88.7117	88.2054	7.053935	31.98973
247	6.04127	3.1738086	87.8569	87.3556	7.053549	31.96337
248	6.03447	3.1719735	86.9870	86.4909	7.055320	31.94973
249	6.04858	3.1731695	86.1170	85.6261	7.052930	31.95018
250	6.07169	3.1747127	85.2533	84.7674	7.049246	31.94603
251	6.08689	3.1754874	84.3834	83.9026	7.046942	31.94077
252	6.11404	3.1762682	83.5104	83.0348	7.043152	31.92433
253	6.13429	3.1762429	82.6221	82.1518	7.040634	31.90544
254	6.14187	3.1760441	81.7371	81.2719	7.039776	31.89653
255	6.14706	3.1750144	80.8366	80.3768	7.039639	31.88064
256	6.14360	3.1741399	79.9483	79.4937	7.040496	31.87459
257	6.14605	3.1739784	79.0571	78.6077	7.040256	31.87092
258	6.14686	3.1728747	78.1627	77.7186	7.040700	31.85831
259	6.15185	3.1734137	77.2532	76.8144	7.039785	31.86006
260	6.19204	3.1754962	76.3468	75.9133	7.033721	31.84596
261	6.23195	3.1749809	75.4372	75.0090	7.029021	31.80331
262	6.25216	3.1740318	74.5245	74.1017	7.026983	31.77434
263	6.26048	3.1734300	73.6028	73.1854	7.026240	31.76035
264	6.26670	3.1732313	72.6749	72.2629	7.025550	31.75277
265	6.27610	3.1739191	71.7441	71.3376	7.024018	31.75207
266	6.28549	3.1737141	70.8102	70.4092	7.022940	31.74148
267	6.28697	3.1736766	69.8763	69.4806	7.022756	31.74012
268	6.29372	3.1734097	68.9301	68.5400	7.022037	31.73133
269	6.30153	3.1738557	67.9962	67.6115	7.020824	31.72942
270	6.33000	3.1747231	67.0438	66.6647	7.016847	31.71296
271	6.35460	3.1734330	66.0795	65.7060	7.014441	31.67627
272	6.36565	3.1723849	65.0908	64.7230	7.013585	31.65489
273	6.38453	3.1726324	64.1234	63.7612	7.011108	31.64055
274	6.42797	3.1742683	63.1406	62.7841	7.004905	31.61879
275	6.45683	3.1749187	62.1396	61.7890	7.001001	31.59970
276	6.46960	3.1751849	61.1387	60.7938	6.999273	31.59128
277	6.47668	3.1752465	60.1103	59.7713	6.998348	31.58589
278	6.48119	3.1751842	59.0758	58.7429	6.997802	31.58151
279	6.49043	3.1750535	58.0475	57.7205	6.996709	31.57202
280	6.50439	3.1750035	57.0313	56.7102	6.994994	31.55904
281	6.52504	3.1746123	56.0060	55.6908	6.992630	31.53616
282	6.54620	3.1739608	54.9806	54.6713	6.990331	31.50995
283	6.57026	3.1750887	53.9127	53.6096	6.986789	31.50068
284	6.61641	3.1775623	52.8173	52.5204	6.979867	31.48586
285	6.68952	3.1811904	51.7036	51.4131	6.969083	31.45895
286	6.74174	3.1827720	50.5931	50.3089	6.961891	31.42887
287	6.76906	3.1843107	49.4794	49.2016	6.957771	31.42117
288	6.79889	3.1862967	48.3596	48.0883	6.953129	31.41607
289	6.85544	3.1908792	47.1486	46.8842	6.943960	31.41489
290	6.93629	3.1940779	45.9375	45.6800	6.932543	31.37645
291	6.98903	3.1965384	44.7142	44.4637	6.924920	31.35569
292	7.03778	3.1988566	43.5214	43.2777	6.917865	31.33704
293	7.07519	3.2004355	42.3103	42.0735	6.912551	31.32072
294	7.12389	3.2032898	41.0870	40.8572	6.905263	31.30798
295	7.18606	3.2054728	39.8271	39.6045	6.896692	31.27582
296	7.22569	3.2072085	38.5519	38.3366	6.891061	31.25928
297	7.27854	3.2088509	37.2557	37.0477	6.883895	31.22983
298	7.32837	3.2102073	35.9350	35.7345	6.877241	31.20009
299	7.39442	3.2119935	34.6294	34.4363	6.868451	31.16045
300	7.49816	3.2157110	33.2935	33.1079	6.854262	31.10782
301	7.70592	3.2201084	31.9239	31.7461	6.827448	30.97000
302	7.89344	3.2218580	30.5241	30.3542	6.804412	30.82317
303	7.98059	3.2224116	29.0967	28.9348	6.793849	30.75294
304	8.00417	3.2222737	27.6724	27.5186	6.791107	30.73140
305	8.01365	3.2220425	26.2664	26.1205	6.790071	30.72126
306	8.02058	3.2215120	24.8543	24.7163	6.789473	30.71020
307	8.03507	3.2216112	23.4391	23.3090	6.787694	30.69916
308	8.09812	3.2229258	22.0635	21.9411	6.779648	30.65843
309	8.22259	3.2239906	20.8433	20.7277	6.764534	30.56161
310	8.27795	3.2239460	19.7872	19.6775	6.758054	30.51351
311	8.29570	3.2235900	18.7616	18.6577	6.756120	30.49483
312	8.33300	3.2233024	17.7177	17.6196	6.751870	30.45996
313	8.36792	3.2231146	16.6679	16.5756	6.747856	30.42826
314	8.40271	3.2220351	15.6118	15.5255	6.744264	30.38741
315	8.44798	3.2217350	14.5466	14.4662	6.739099	30.34574
316	8.47351	3.2216097	13.4965	13.4219	6.736160	30.32293
317	8.48381	3.2216904	12.5106	12.4415	6.734906	30.31535
318	8.49701	3.2219144	11.5490	11.4853	6.733248	30.30675
319	8.52846	3.2216332	10.5690	10.5107	6.729695	30.27725
320	8.56998	3.2212459	9.6164	9.5633	6.725022	30.23807
321	8.61127	3.2196679	8.6943	8.6464	6.720911	30.18678
322	8.80138	3.2132785	7.7509	7.7082	6.701681	29.95962
323	9.12964	3.2054549	6.7861	6.7487	6.667179	29.60481
324	9.42748	3.1935799	5.8580	5.8257	6.638066	29.23925
325	9.68069	3.1862163	5.0148	4.9872	6.612220	28.96012
326	10.17532	3.1832995	4.2023	4.1792	6.557271	28.53780
327	10.63538	3.1806634	3.4962	3.4770	6.506660	28.15402
328	10.80826	3.1661303	2.8602	2.8445	6.493172	27.88008
329	10.74626	3.1121420	2.2061	2.1939	6.521711	27.40171
330	10.66776	3.0857069	1.5669	1.5583	6.541210	27.20321
331	10.63453	3.0657299	0.9369	0.9318	6.553036	27.03355
332	10.60115	3.0433060	0.3496	0.3477	6.565901	26.84002
333	10.56155	3.0440690	0.1124	0.1118	6.570134	26.87665
334	10.51727	2.2120427	0.1096	0.1090	6.914863	18.94917
335	10.45892	0.4256837	0.1099	0.1093	7.649155	3.21303
336	10.42933	0.4087792	0.1100	0.1094	7.660879	3.07989
337	10.39602	0.3391627	0.1103	0.1096	7.693669	2.52796
338	10.35963	0.2635982	0.1105	0.1099	7.729062	1.93741
339	10.31688	0.2966077	0.1138	0.1131	7.724037	2.19770
