Scan Count	Temperature [ITS-90, deg C]	Conductivity [S/m]	Pressure, Strain Gauge [db]	Depth [salt water, m]	Oxygen Saturation, Weiss [ml/l]	Salinity, Practical [PSU]
1	13.49862	0.0003825	-0.0210	-0.0209	7.283042	0.00805
2	13.49770	0.0003794	-0.0271	-0.0270	7.283192	0.00803
3	13.49585	0.0003855	-0.0210	-0.0209	7.283490	0.00806
4	13.49271	0.0003763	-0.0210	-0.0209	7.284000	0.00802
5	13.48988	0.0003794	-0.0180	-0.0179	7.284458	0.00803
6	13.48908	0.0003855	-0.0210	-0.0209	7.284587	0.00805
7	13.48920	0.0003794	-0.0180	-0.0179	7.284568	0.00803
8	13.48932	0.0003763	-0.0180	-0.0179	7.284549	0.00802
9	13.48914	0.0003855	-0.0272	-0.0271	7.284577	0.00805
10	13.48834	0.0003794	-0.0211	-0.0210	7.284708	0.00803
11	13.48545	0.0003763	-0.0181	-0.0180	7.285177	0.00801
12	13.48101	0.0003794	-0.0241	-0.0240	7.285894	0.00802
13	13.47861	0.0003763	-0.0180	-0.0179	7.286284	0.00801
14	13.47751	0.0003855	-0.0212	-0.0211	7.286461	0.00805
15	13.47714	0.0003794	-0.0181	-0.0180	7.286522	0.00802
16	13.47757	0.0003855	-0.0210	-0.0209	7.286451	0.00805
17	13.47837	0.0003794	-0.0180	-0.0179	7.286323	0.00802
18	13.47917	0.0003763	-0.0181	-0.0180	7.286194	0.00801
19	13.47757	0.0003855	-0.0212	-0.0211	7.286451	0.00805
20	13.47646	0.0003855	-0.0211	-0.0210	7.286631	0.00805
21	13.47671	0.0003855	-0.0242	-0.0240	7.286591	0.00805
22	13.47652	0.0003794	-0.0240	-0.0239	7.286622	0.00802
23	13.47720	0.0003855	-0.0180	-0.0179	7.286511	0.00805
24	13.47621	0.0003763	-0.0212	-0.0211	7.286673	0.00801
25	13.46975	0.0003855	-0.0180	-0.0179	7.287718	0.00805
26	13.46754	0.0003855	-0.0241	-0.0240	7.288077	0.00804
27	13.46883	0.0003855	-0.0150	-0.0149	7.287867	0.00805
28	13.47049	0.0003855	-0.0150	-0.0149	7.287598	0.00805
29	13.47240	0.0003763	-0.0120	-0.0119	7.287291	0.00801
30	13.47406	0.0003794	-0.0180	-0.0179	7.287021	0.00802
31	13.47541	0.0003855	-0.0118	-0.0118	7.286800	0.00805
32	13.47671	0.0003763	-0.0150	-0.0149	7.286593	0.00801
33	13.47837	0.0003855	-0.0211	-0.0210	7.286322	0.00805
34	13.47978	0.0003855	-0.0211	-0.0210	7.286092	0.00805
35	13.48095	0.0003855	-0.0149	-0.0148	7.285903	0.00805
36	13.48151	0.0003855	-0.0210	-0.0209	7.285813	0.00805
37	13.48243	0.0003855	-0.0180	-0.0179	7.285664	0.00805
38	13.48305	0.0003794	-0.0180	-0.0179	7.285565	0.00803
39	13.48249	0.0003855	-0.0148	-0.0148	7.285654	0.00805
40	13.48237	0.0003794	-0.0119	-0.0118	7.285675	0.00803
41	13.48212	0.0003855	-0.0180	-0.0179	7.285714	0.00805
42	13.47818	0.0003855	-0.0210	-0.0209	7.286352	0.00805
43	13.47387	0.0003855	-0.0149	-0.0148	7.287050	0.00805
44	13.47203	0.0003763	-0.0149	-0.0148	7.287351	0.00801
45	13.47049	0.0003701	-0.0149	-0.0148	7.287601	0.00798
46	13.46667	0.0003948	-0.0179	-0.0178	7.288215	0.00808
47	13.46544	0.0003763	-0.0179	-0.0178	7.288418	0.00801
48	13.46317	0.0003855	-0.0149	-0.0148	7.288785	0.00804
49	13.45794	0.0003855	-0.0179	-0.0178	7.289633	0.00804
50	13.45658	0.0003855	-0.0209	-0.0208	7.289852	0.00804
51	13.38647	0.0003331	0.0034	0.0034	7.301247	0.00779
52	12.29515	0.0004472	0.0124	0.0124	7.482522	0.00781
53	10.85994	0.0011535	0.0461	0.0458	7.733089	0.01090
54	9.89287	0.2166024	0.0613	0.0610	7.831195	1.59467
55	9.29642	0.2606368	0.0583	0.0580	7.923582	1.97116
56	9.00307	0.7378080	0.0736	0.0732	7.775157	6.02112
57	8.81026	1.2164504	0.0858	0.0853	7.596136	10.37268
58	8.65101	1.2171893	0.0888	0.0883	7.622178	10.42615
59	8.59081	1.2007135	0.0705	0.0701	7.639670	10.29116
60	8.52876	0.1577763	0.0401	0.0399	8.111452	1.18619
61	8.57309	0.0999446	0.0310	0.0308	8.126316	0.73409
62	8.73609	0.3732781	0.0462	0.0459	7.981264	2.93036
63	8.80390	1.1558664	0.0674	0.0671	7.624355	9.81733
64	8.82858	1.2296579	0.0735	0.0731	7.587191	10.48909
65	8.80020	1.2288405	0.0796	0.0792	7.592234	10.48992
66	8.72470	1.2314437	0.0857	0.0853	7.603529	10.53632
67	8.70057	1.2344211	0.0767	0.0762	7.606173	10.57106
68	8.67846	0.8805976	0.0615	0.0611	7.769060	7.34832
69	8.66552	0.1638731	0.0462	0.0460	8.082469	1.22972
70	8.84837	0.3729874	0.0492	0.0489	7.960407	2.91873
71	9.03574	1.1665879	0.0645	0.0642	7.581114	9.85140
72	9.12527	1.2330464	0.0919	0.0914	7.537087	10.43316
73	9.08782	1.2337012	0.1102	0.1096	7.542903	10.45009
74	9.00187	1.2343153	0.0980	0.0974	7.556669	10.48093
75	8.96562	1.2349020	0.0827	0.0822	7.562341	10.49698
76	8.92210	1.2385644	0.0706	0.0702	7.567841	10.54352
77	8.88337	0.8438023	0.0615	0.0611	7.749659	6.97830
78	8.97495	1.0650635	0.0644	0.0641	7.636169	8.94437
79	9.10818	0.9043517	0.0583	0.0580	7.684244	7.47112
80	9.20277	0.8313512	0.0644	0.0640	7.699730	6.80652
81	9.25171	1.2382263	0.0889	0.0884	7.514272	10.44359
82	9.26848	1.2432803	0.1133	0.1127	7.509347	10.48478
83	9.26386	1.2450984	0.1193	0.1187	7.509299	10.50271
84	9.26677	1.2455907	0.0950	0.0945	7.508612	10.50635
85	9.25231	1.0374492	0.0676	0.0672	7.601828	8.62728
86	9.26870	0.1695598	0.0552	0.0549	7.965232	1.25344
87	9.47451	0.2981480	0.0524	0.0521	7.875528	2.26153
88	9.62550	0.3410608	0.0524	0.0521	7.830655	2.59732
89	9.70556	1.1741428	0.0524	0.0521	7.468646	9.73692
90	9.75208	1.2470977	0.0677	0.0673	7.430147	10.37913
91	9.72252	1.2477863	0.0767	0.0763	7.434553	10.39383
92	9.62573	1.2489543	0.0860	0.0855	7.449479	10.43231
93	9.51318	1.2502048	0.0889	0.0884	7.466941	10.47630
94	9.44506	1.2509899	0.0768	0.0764	7.477527	10.50330
95	9.43219	1.2517886	0.0798	0.0794	7.479248	10.51432
96	9.42143	1.2525099	0.0767	0.0763	7.480666	10.52402
97	9.40084	1.2524278	0.0798	0.0794	7.484010	10.52931
98	9.40790	1.2528386	0.0707	0.0703	7.482696	10.53097
99	9.41679	1.2540942	0.0799	0.0794	7.480724	10.53978
100	9.40575	1.2551264	0.0830	0.0825	7.482050	10.55241
101	9.39918	1.2542587	0.0738	0.0734	7.483482	10.54645
102	9.40514	1.2521950	0.0739	0.0735	7.483419	10.52593
103	9.43755	1.2537653	0.0829	0.0825	7.477532	10.53070
104	9.47076	1.2549297	0.0921	0.0916	7.471699	10.53154
105	9.49414	1.2560351	0.0952	0.0947	7.467473	10.53472
106	9.50051	1.4969121	0.1195	0.1189	7.362268	12.73737
107	9.33771	2.5161800	0.1927	0.1916	6.941853	22.54390
108	9.00258	2.4940760	0.2903	0.2887	6.995630	22.53696
109	8.68469	2.4881702	0.4121	0.4098	7.040559	22.68025
110	8.40753	2.4885862	0.5523	0.5493	7.077568	22.86278
111	8.19066	2.4921882	0.6620	0.6584	7.105205	23.04043
112	8.05382	2.4969660	0.7686	0.7644	7.121546	23.17898
113	7.97971	2.4944985	0.8054	0.8009	7.132782	23.20281
114	7.97971	2.4998274	0.8023	0.7979	7.130282	23.25721
115	8.03297	2.5043532	0.7962	0.7918	7.120923	23.26805
116	8.05515	2.5054666	0.7991	0.7947	7.117393	23.26469
117	8.03921	2.5059724	0.8114	0.8070	7.119320	23.28042
118	7.99462	2.5093659	0.8145	0.8100	7.123783	23.34468
119	7.96726	2.5168685	0.8206	0.8160	7.123976	23.43959
120	7.96444	2.5223512	0.8175	0.8131	7.121785	23.49753
121	7.94795	2.5260600	0.8175	0.8131	7.122278	23.54654
122	7.92636	2.5236900	0.8054	0.8010	7.126319	23.53680
123	7.90797	2.5158333	0.8054	0.8009	7.132513	23.46870
124	7.88253	2.5126819	0.8023	0.7979	7.137459	23.45348
125	7.87308	2.5135750	0.8145	0.8100	7.138324	23.46897
126	7.87340	2.5162433	0.8266	0.8221	7.137022	23.49609
127	7.87499	2.5195958	0.8206	0.8161	7.135223	23.52939
128	7.87643	2.5225114	0.8267	0.8221	7.133653	23.55831
129	7.87271	2.5221013	0.8177	0.8132	7.134351	23.55661
130	7.86130	2.5173987	0.8146	0.8101	7.138123	23.51607
131	7.84650	2.5155892	0.8084	0.8040	7.140992	23.50747
132	7.83504	2.5152991	0.8085	0.8040	7.142689	23.51220
133	7.83228	2.5163745	0.8084	0.8040	7.142556	23.52509
134	7.83615	2.5182868	0.8085	0.8041	7.141125	23.54211
135	7.84215	2.5209114	0.8085	0.8041	7.139069	23.56500
136	7.84825	2.5235653	0.8117	0.8072	7.136985	23.58811
137	7.84957	2.5241407	0.8147	0.8102	7.136533	23.59312
138	7.84220	2.5212245	0.8087	0.8042	7.138914	23.56818
139	7.83011	2.5196759	0.8116	0.8071	7.141291	23.56043
140	7.81797	2.5198069	0.8178	0.8133	7.142882	23.56996
141	7.81129	2.5209344	0.8178	0.8133	7.143258	23.58604
142	7.81097	2.5229448	0.8208	0.8162	7.142350	23.60690
143	7.81516	2.5247164	0.8147	0.8103	7.140941	23.62227
144	7.81908	2.5251380	0.8179	0.8134	7.140208	23.62395
145	7.81749	2.5233548	0.8088	0.8043	7.141268	23.60672
146	7.81224	2.5212533	0.8118	0.8073	7.142977	23.58868
147	7.80562	2.5204675	0.8149	0.8104	7.144251	23.58508
148	7.80074	2.5210427	0.8118	0.8073	7.144643	23.59428
149	7.79952	2.5228252	0.8271	0.8225	7.143964	23.61341
150	7.80440	2.5251153	0.8210	0.8165	7.142216	23.63364
151	7.81362	2.5271667	0.8179	0.8135	7.139990	23.64848
152	7.81934	2.5270868	0.8088	0.8044	7.139250	23.64379
153	7.81738	2.5242606	0.8027	0.7983	7.140854	23.61609
154	7.80975	2.5229334	0.7997	0.7953	7.142521	23.60762
155	7.80042	2.5229562	0.8089	0.8044	7.143779	23.61415
156	7.79406	2.5240899	0.8180	0.8135	7.144108	23.63010
157	7.79295	2.5261410	0.8211	0.8166	7.143288	23.65193
158	7.79952	2.5287970	0.8242	0.8197	7.141136	23.67477
159	7.81526	2.5311972	0.8181	0.8137	7.137860	23.68877
160	7.83610	2.5330678	0.8151	0.8106	7.134145	23.69386
161	7.84862	2.5343854	0.8060	0.8015	7.131823	23.69891
162	7.84650	2.5324346	0.8029	0.7985	7.133033	23.68032
163	7.83525	2.5305071	0.8061	0.8017	7.135470	23.66815
164	7.82247	2.5306726	0.8091	0.8046	7.137128	23.67850
165	7.81399	2.5322238	0.8152	0.8107	7.137547	23.70018
166	7.81261	2.5347794	0.8183	0.8138	7.136524	23.72738
167	7.82348	2.5394822	0.8244	0.8199	7.132825	23.76832
168	7.85769	2.5436394	0.8276	0.8230	7.126225	23.78775
169	7.89124	2.5440505	0.8153	0.8108	7.121491	23.76917
170	7.89963	2.5412288	0.8062	0.8018	7.121684	23.73454
171	7.88699	2.5396415	0.7971	0.7927	7.124143	23.72684
172	7.86677	2.5401441	0.8093	0.8048	7.126645	23.74571
173	7.84910	2.5424228	0.8184	0.8139	7.127963	23.78111
174	7.84209	2.5460507	0.8246	0.8200	7.127198	23.82314
175	7.86098	2.5506465	0.8367	0.8321	7.122473	23.85747
176	7.88243	2.5525050	0.8278	0.8232	7.118698	23.86192
177	7.88004	2.5534374	0.8156	0.8111	7.118581	23.87313
178	7.87478	2.5532258	0.8003	0.7959	7.119390	23.87455
179	7.87128	2.5526137	0.7973	0.7929	7.120152	23.87066
180	7.86480	2.5521620	0.8034	0.7990	7.121240	23.87043
181	7.86082	2.5558691	0.8157	0.8112	7.120029	23.91123
182	7.86953	2.5588454	0.8278	0.8233	7.117450	23.93584
183	7.87797	2.5577748	0.8218	0.8173	7.116816	23.91908
184	7.90224	2.5582841	0.8218	0.8173	7.113302	23.90772
185	7.97098	2.5590105	0.8128	0.8083	7.103700	23.86828
186	8.01326	2.5591648	0.8097	0.8053	7.097943	23.84109
187	8.02583	2.5583632	0.8036	0.7992	7.096628	23.82434
188	8.02828	2.5585750	0.8069	0.8024	7.096199	23.82484
189	8.03036	2.5604987	0.8129	0.8085	7.095021	23.84310
190	8.04598	2.5618844	0.8312	0.8266	7.092277	23.84665
191	8.06293	2.5615349	0.8281	0.8236	7.090164	23.83155
192	8.07824	2.5611339	0.8282	0.8237	7.088298	23.81707
193	8.13538	2.5621872	0.8191	0.8146	7.080152	23.78909
194	8.18494	2.5624445	0.8100	0.8055	7.073401	23.75820
195	8.21673	2.5617513	0.8040	0.7996	7.069474	23.72968
196	8.22680	2.5631946	0.8070	0.8025	7.067462	23.73757
197	8.23215	2.5639908	0.8101	0.8057	7.066378	23.74205
198	8.24271	2.5636699	0.8162	0.8117	7.065118	23.73167
199	8.25058	2.5646323	0.8223	0.8178	7.063623	23.73614
200	8.26216	2.5648843	0.8255	0.8209	7.061963	23.73090
201	8.30415	2.5660472	0.8255	0.8209	7.055831	23.71442
202	8.33078	2.5665283	0.8286	0.8240	7.052066	23.70139
203	8.33335	2.5662246	0.8225	0.8180	7.051863	23.69658
204	8.33153	2.5670155	0.8104	0.8059	7.051742	23.70583
205	8.33518	2.5683796	0.8043	0.7999	7.050629	23.71721
206	8.34323	2.5690216	0.8013	0.7969	7.049263	23.71830
207	8.35102	2.5684712	0.8043	0.7999	7.048480	23.70749
208	8.35382	2.5678177	0.8045	0.8000	7.048409	23.69898
209	8.34936	2.5684827	0.8136	0.8092	7.048696	23.70872
210	8.34345	2.5703403	0.8198	0.8153	7.048628	23.73153
211	8.34603	2.5718084	0.8290	0.8244	7.047612	23.74467
212	8.35376	2.5692623	0.8290	0.8244	7.047753	23.71365
213	8.35516	2.5689929	0.8291	0.8246	7.047691	23.70998
214	8.36005	2.5693082	0.8169	0.8124	7.046896	23.70990
215	8.37316	2.5700362	0.8078	0.8033	7.044820	23.70846
216	8.37773	2.5694227	0.8047	0.8003	7.044495	23.69918
217	8.37021	2.5699387	0.8078	0.8034	7.045257	23.70946
218	8.36026	2.5706785	0.8140	0.8095	7.046239	23.72364
219	8.36553	2.5710570	0.8354	0.8308	7.045366	23.72393
220	8.36779	2.5710741	0.8323	0.8277	7.045058	23.72258
221	8.39440	2.5706266	0.8354	0.8308	7.041730	23.70016
222	8.45543	2.5709472	0.8203	0.8158	7.033490	23.66247
223	8.49149	2.5709985	0.8112	0.8067	7.028693	23.63886
224	8.50098	2.5695592	0.8020	0.7976	7.028093	23.61799
225	8.49607	2.5704652	0.7990	0.7946	7.028329	23.63041
226	8.49014	2.5709756	0.8112	0.8068	7.028882	23.63953
227	8.49278	2.5713025	0.8174	0.8129	7.028383	23.64106
228	8.49397	2.5732009	0.8236	0.8190	7.027361	23.65944
229	8.49650	2.5732812	0.8296	0.8251	7.026990	23.65855
230	8.53539	2.5734300	0.8205	0.8160	7.021780	23.63404
231	8.57146	2.5719900	0.8176	0.8131	7.017669	23.59545
232	8.58595	2.5701950	0.8146	0.8101	7.016572	23.56772
233	8.57692	2.5705735	0.8116	0.8071	7.017592	23.57754
234	8.56304	2.5711757	0.8116	0.8072	7.019152	23.59286
235	8.56514	2.5718066	0.8147	0.8102	7.018587	23.59782
236	8.57255	2.5732806	0.8178	0.8133	7.016941	23.60773
237	8.57173	2.5737854	0.8270	0.8225	7.016819	23.61336
238	8.56514	2.5740322	0.8239	0.8194	7.017577	23.62024
239	8.56050	2.5734700	0.8303	0.8257	7.018446	23.61767
240	8.56315	2.5730742	0.8241	0.8196	7.018276	23.61192
241	8.56628	2.5732806	0.8149	0.8105	7.017768	23.61191
242	8.56871	2.5737338	0.8241	0.8195	7.017242	23.61486
243	8.57341	2.5744624	0.8272	0.8227	7.016291	23.61906
244	8.58065	2.5748754	0.8181	0.8136	7.015148	23.61839
245	8.58816	2.5750245	0.8152	0.8107	7.014090	23.61488
246	8.59373	2.5749958	0.8152	0.8107	7.013369	23.61088
247	8.59719	2.5745941	0.8152	0.8107	7.013094	23.60453
248	8.59724	2.5744851	0.8184	0.8139	7.013137	23.60340
249	8.59389	2.5747261	0.8214	0.8168	7.013470	23.60806
250	8.59189	2.5756327	0.8276	0.8231	7.013322	23.61852
251	8.59481	2.5751335	0.8245	0.8200	7.013164	23.61154
252	8.59892	2.5753458	0.8247	0.8201	7.012526	23.61094
253	8.60216	2.5752023	0.8156	0.8111	7.012163	23.60734
254	8.60340	2.5744621	0.8095	0.8051	7.012334	23.59906
255	8.59903	2.5746744	0.8126	0.8081	7.012816	23.60411
256	8.58908	2.5750762	0.8187	0.8142	7.013945	23.61479
257	8.58335	2.5755066	0.8187	0.8142	7.014506	23.62295
258	8.58611	2.5755869	0.8249	0.8203	7.014106	23.62191
259	8.58503	2.5756156	0.8249	0.8204	7.014235	23.62293
260	8.58449	2.5758623	0.8250	0.8205	7.014195	23.62577
261	8.59800	2.5756155	0.8189	0.8144	7.012525	23.61427
262	8.61319	2.5748350	0.8221	0.8176	7.010875	23.59629
263	8.61590	2.5747489	0.8191	0.8146	7.010558	23.59362
264	8.60713	2.5749440	0.8222	0.8177	7.011624	23.60142
265	8.60119	2.5753457	0.8283	0.8237	7.012227	23.60943
266	8.60686	2.5748006	0.8253	0.8208	7.011725	23.60015
267	8.60984	2.5749153	0.8253	0.8208	7.011281	23.59933
268	8.62525	2.5745939	0.8254	0.8208	7.009395	23.58582
269	8.64457	2.5742438	0.8193	0.8148	7.007008	23.56945
270	8.65399	2.5740601	0.8224	0.8179	7.005851	23.56134
271	8.66373	2.5742436	0.8287	0.8241	7.004485	23.55670
272	8.66964	2.5744616	0.8225	0.8180	7.003610	23.55497
273	8.68085	2.5741402	0.8255	0.8210	7.002279	23.54429
274	8.68773	2.5739508	0.8257	0.8212	7.001459	23.53782
275	8.68675	2.5737615	0.8226	0.8181	7.001673	23.53657
276	8.69006	2.5739623	0.8196	0.8151	7.001147	23.53640
277	8.69163	2.5740540	0.8197	0.8152	7.000899	23.53627
278	8.69076	2.5743007	0.8228	0.8183	7.000902	23.53933
279	8.69163	2.5743179	0.8137	0.8093	7.000780	23.53893
280	8.69743	2.5742720	0.8108	0.8063	7.000038	23.53462
281	8.70572	2.5743006	0.8139	0.8094	6.998935	23.52940
282	8.71233	2.5744325	0.8170	0.8125	6.998006	23.52634
283	8.71618	2.5746964	0.8231	0.8186	6.997381	23.52643
284	8.71597	2.5749431	0.8261	0.8216	6.997299	23.52905
285	8.71298	2.5749661	0.8324	0.8278	6.997681	23.53126
286	8.71222	2.5741112	0.8385	0.8339	6.998165	23.52318
287	8.71477	2.5734113	0.8294	0.8248	6.998145	23.51447
288	8.71461	2.5733597	0.8234	0.8189	6.998190	23.51406
289	8.71244	2.5730213	0.8173	0.8128	6.998627	23.51210
290	8.71125	2.5737326	0.8144	0.8099	6.998464	23.52003
291	8.70783	2.5735491	0.8113	0.8069	6.998995	23.52046
292	8.69819	2.5736811	0.8206	0.8160	7.000205	23.52818
293	8.68876	2.5738705	0.8267	0.8221	7.001360	23.53633
294	8.69000	2.5734689	0.8328	0.8283	7.001377	23.53147
295	8.69038	2.5742721	0.8329	0.8283	7.000965	23.53929
296	8.70409	2.5742375	0.8330	0.8284	6.999177	23.52984
297	8.72958	2.5727974	0.8177	0.8132	6.996475	23.49850
298	8.73956	2.5720689	0.8149	0.8104	6.995491	23.48459
299	8.74346	2.5721377	0.8088	0.8043	6.994947	23.48270
300	8.74705	2.5721491	0.8148	0.8103	6.994471	23.48044
301	8.74873	2.5724761	0.8179	0.8134	6.994103	23.48260
302	8.74715	2.5730497	0.8211	0.8166	6.994052	23.48940
303	8.74140	2.5731989	0.8364	0.8318	6.994741	23.49469
304	8.74737	2.5728202	0.8273	0.8227	6.994127	23.48695
305	8.75432	2.5719885	0.8303	0.8258	6.993588	23.47402
306	8.75231	2.5715010	0.8304	0.8258	6.994071	23.47046
307	8.75063	2.5716444	0.8305	0.8259	6.994227	23.47301
308	8.75356	2.5721778	0.8244	0.8199	6.993603	23.47642
309	8.76072	2.5725161	0.8245	0.8200	6.992510	23.47507
310	8.76539	2.5724989	0.8215	0.8170	6.991904	23.47181
311	8.76653	2.5721490	0.8215	0.8170	6.991912	23.46755
312	8.76604	2.5717303	0.8155	0.8110	6.992164	23.46368
313	8.76441	2.5716959	0.8185	0.8140	6.992393	23.46441
314	8.76208	2.5717246	0.8279	0.8233	6.992687	23.46624
315	8.76023	2.5717762	0.8308	0.8263	6.992906	23.46798
316	8.75964	2.5720630	0.8372	0.8326	6.992856	23.47124
317	8.76029	2.5714838	0.8372	0.8326	6.993031	23.46501
318	8.75795	2.5715067	0.8281	0.8235	6.993327	23.46678
319	8.75177	2.5709448	0.8190	0.8145	6.994392	23.46524
320	8.74867	2.5711054	0.8129	0.8084	6.994726	23.46890
321	8.74607	2.5711570	0.8069	0.8025	6.995045	23.47114
322	8.73869	2.5710710	0.8161	0.8116	6.996054	23.47516
323	8.72860	2.5707328	0.8252	0.8207	6.997533	23.47844
324	8.72556	2.5704633	0.8283	0.8238	6.998053	23.47774
325	8.72068	2.5718569	0.8315	0.8269	6.998068	23.49495
326	8.72589	2.5722124	0.8254	0.8209	6.997223	23.49507
327	8.74867	2.5706753	0.8254	0.8209	6.994920	23.46459
328	8.75866	2.5695227	0.8133	0.8088	6.994125	23.44644
329	8.75888	2.5698839	0.8134	0.8089	6.993934	23.44992
330	8.75953	2.5699527	0.8226	0.8181	6.993818	23.45017
331	8.75904	2.5695227	0.8318	0.8273	6.994075	23.44618
332	8.75806	2.5709963	0.8350	0.8304	6.993542	23.46159
333	8.75209	2.5721778	0.8380	0.8334	6.993795	23.47738
334	8.75969	2.5715641	0.8289	0.8243	6.993073	23.46621
335	8.76957	2.5696315	0.8320	0.8275	6.992643	23.44032
336	8.76707	2.5686168	0.8259	0.8214	6.993426	23.43180
337	8.76007	2.5686971	0.8230	0.8185	6.994310	23.43723
338	8.75166	2.5686972	0.8291	0.8245	6.995416	23.44279
339	8.74867	2.5692533	0.8230	0.8185	6.995559	23.45033
340	8.74840	2.5696833	0.8262	0.8217	6.995401	23.45482
341	8.74460	2.5690412	0.8233	0.8188	6.996189	23.45090
342	8.73891	2.5685597	0.8264	0.8218	6.997155	23.44983
343	8.73348	2.5685942	0.8325	0.8279	6.997853	23.45376
344	8.73028	2.5689611	0.8264	0.8219	6.998108	23.45956
345	8.72735	2.5691503	0.8296	0.8250	6.998409	23.46339
346	8.72345	2.5690471	0.8235	0.8189	6.998969	23.46494
347	8.72019	2.5685885	0.8206	0.8160	6.999603	23.46249
348	8.71916	2.5683764	0.8236	0.8190	6.999834	23.46105
349	8.71830	2.5684166	0.8206	0.8161	6.999930	23.46202
350	8.71738	2.5687204	0.8238	0.8193	6.999915	23.46568
351	8.71597	2.5685370	0.8267	0.8222	7.000183	23.46477
352	8.71347	2.5683192	0.8270	0.8225	7.000609	23.46423
353	8.71190	2.5678377	0.8239	0.8194	7.001033	23.46044
354	8.71136	2.5676772	0.8331	0.8286	7.001177	23.45919
355	8.71157	2.5676543	0.8331	0.8286	7.001158	23.45882
356	8.71184	2.5676313	0.8393	0.8347	7.001133	23.45841
357	8.71244	2.5678377	0.8332	0.8287	7.000962	23.46008
358	8.71293	2.5678950	0.8334	0.8288	7.000872	23.46034
359	8.71282	2.5676772	0.8273	0.8227	7.000984	23.45822
360	8.71304	2.5672817	0.8304	0.8258	7.001133	23.45411
361	8.71401	2.5670123	0.8274	0.8229	7.001126	23.45076
362	8.71504	2.5669836	0.8274	0.8229	7.001004	23.44980
363	8.71586	2.5669263	0.8306	0.8260	7.000922	23.44868
364	8.71656	2.5668747	0.8277	0.8231	7.000853	23.44770
365	8.71738	2.5671441	0.8338	0.8292	7.000625	23.44986
366	8.71786	2.5669836	0.8277	0.8231	7.000632	23.44793
367	8.71765	2.5666741	0.8247	0.8201	7.000800	23.44497
368	8.71770	2.5666053	0.8248	0.8203	7.000824	23.44425
369	8.71672	2.5666627	0.8311	0.8265	7.000927	23.44546
370	8.71521	2.5663475	0.8309	0.8264	7.001269	23.44331
371	8.71488	2.5660208	0.8250	0.8204	7.001458	23.44025
372	8.71391	2.5657515	0.8251	0.8206	7.001708	23.43819
373	8.71260	2.5655624	0.8312	0.8266	7.001965	23.43715
374	8.71163	2.5658375	0.8282	0.8236	7.001969	23.44056
375	8.70908	2.5658833	0.8283	0.8237	7.002284	23.44270
376	8.70680	2.5656427	0.8345	0.8299	7.002693	23.44179
377	8.70604	2.5652072	0.8314	0.8269	7.002989	23.43792
378	8.70507	2.5650296	0.8376	0.8330	7.003197	23.43678
379	8.70361	2.5647374	0.8346	0.8300	7.003522	23.43482
380	8.70301	2.5645770	0.8286	0.8240	7.003672	23.43360
381	8.70263	2.5646285	0.8256	0.8211	7.003699	23.43437
382	8.70171	2.5648176	0.8256	0.8211	7.003735	23.43688
383	8.69992	2.5648692	0.8319	0.8273	7.003948	23.43858
384	8.69775	2.5645770	0.8349	0.8303	7.004365	23.43708
385	8.69694	2.5642562	0.8440	0.8394	7.004617	23.43439
386	8.69786	2.5640442	0.8351	0.8305	7.004591	23.43166
387	8.69873	2.5638265	0.8413	0.8367	7.004575	23.42890
388	8.69905	2.5635687	0.8353	0.8307	7.004648	23.42610
389	8.69970	2.5635630	0.8291	0.8246	7.004565	23.42561
390	8.69932	2.5638838	0.8262	0.8216	7.004470	23.42908
391	8.69661	2.5641473	0.8263	0.8217	7.004709	23.43352
392	8.69277	2.5637463	0.8325	0.8279	7.005396	23.43203
393	8.69114	2.5632136	0.8385	0.8339	7.005851	23.42776
394	8.69179	2.5627611	0.8356	0.8310	7.005969	23.42279
395	8.69179	2.5625835	0.8356	0.8310	7.006049	23.42101
396	8.69228	2.5624403	0.8327	0.8282	7.006050	23.41925
397	8.69293	2.5624403	0.8265	0.8220	7.005964	23.41882
398	8.69179	2.5628126	0.8266	0.8221	7.005946	23.42331
399	8.68784	2.5630131	0.8267	0.8222	7.006377	23.42794
400	8.68323	2.5625435	0.8268	0.8223	7.007196	23.42626
401	8.68215	2.5619078	0.8391	0.8345	7.007626	23.42059
402	8.68372	2.5615985	0.8361	0.8315	7.007558	23.41645
403	8.68529	2.5614782	0.8391	0.8345	7.007405	23.41421
404	8.68605	2.5614496	0.8422	0.8376	7.007318	23.41342
405	8.68610	2.5615068	0.8362	0.8316	7.007285	23.41396
406	8.68507	2.5614496	0.8364	0.8318	7.007447	23.41406
407	8.68388	2.5613179	0.8456	0.8409	7.007663	23.41352
408	8.68345	2.5611289	0.8333	0.8287	7.007806	23.41192
409	8.68393	2.5609685	0.8304	0.8259	7.007813	23.40999
410	8.68534	2.5609456	0.8366	0.8320	7.007638	23.40883
411	8.68648	2.5609971	0.8457	0.8411	7.007465	23.40859
412	8.68664	2.5608883	0.8429	0.8382	7.007493	23.40739
413	8.68621	2.5605161	0.8397	0.8351	7.007718	23.40394
414	8.68659	2.5602241	0.8398	0.8352	7.007799	23.40076
415	8.68811	2.5600924	0.8339	0.8293	7.007658	23.39844
416	8.68984	2.5601153	0.8339	0.8293	7.007419	23.39752
417	8.69038	2.5602928	0.8340	0.8294	7.007268	23.39895
418	8.68935	2.5601153	0.8280	0.8234	7.007484	23.39785
419	8.68794	2.5599550	0.8280	0.8235	7.007742	23.39717
420	8.68735	2.5600924	0.8311	0.8265	7.007758	23.39894
421	8.68670	2.5600867	0.8374	0.8328	7.007847	23.39931
422	8.68513	2.5596115	0.8465	0.8418	7.008269	23.39557
423	8.68464	2.5591019	0.8434	0.8388	7.008563	23.39078
424	8.68583	2.5587584	0.8467	0.8420	7.008560	23.38655
425	8.68724	2.5586783	0.8376	0.8330	7.008411	23.38482
426	8.68816	2.5588099	0.8346	0.8300	7.008230	23.38553
427	8.68778	2.5593195	0.8286	0.8240	7.008050	23.39090
428	8.68491	2.5597890	0.8225	0.8180	7.008217	23.39751
429	8.67993	2.5596115	0.8377	0.8331	7.008955	23.39901
430	8.67538	2.5588100	0.8441	0.8394	7.009917	23.39396
431	8.67446	2.5579571	0.8502	0.8455	7.010423	23.38601
432	8.67532	2.5573962	0.8411	0.8365	7.010562	23.37981
433	8.67548	2.5573733	0.8381	0.8335	7.010551	23.37947
434	8.67521	2.5576652	0.8320	0.8274	7.010455	23.38258
435	8.67391	2.5581174	0.8321	0.8275	7.010422	23.38798
436	8.67110	2.5581231	0.8291	0.8246	7.010791	23.38990
437	8.66823	2.5579858	0.8291	0.8246	7.011232	23.39041
438	8.66612	2.5582491	0.8323	0.8277	7.011392	23.39445
439	8.66427	2.5580659	0.8415	0.8369	7.011718	23.39382
440	8.66238	2.5567667	0.8385	0.8339	7.012555	23.38203
441	8.66260	2.5554505	0.8386	0.8340	7.013121	23.36867
442	8.66325	2.5554791	0.8356	0.8310	7.013022	23.36853
443	8.66335	2.5562001	0.8326	0.8280	7.012682	23.37570
444	8.66124	2.5573963	0.8295	0.8250	7.012421	23.38910
445	8.65599	2.5576367	0.8326	0.8280	7.013006	23.39498
446	8.65101	2.5572361	0.8389	0.8342	7.013845	23.39424
447	8.64841	2.5563147	0.8390	0.8344	7.014605	23.38670
448	8.64841	2.5552160	0.8390	0.8344	7.015101	23.37567
449	8.64760	2.5546267	0.8452	0.8405	7.015475	23.37028
450	8.64479	2.5547068	0.8481	0.8435	7.015811	23.37294
451	8.64284	2.5551073	0.8453	0.8407	7.015887	23.37825
452	8.64192	2.5552390	0.8453	0.8406	7.015949	23.38018
453	8.64111	2.5552161	0.8485	0.8439	7.016067	23.38048
454	8.64035	2.5553706	0.8395	0.8349	7.016097	23.38254
455	8.63932	2.5555594	0.8456	0.8409	7.016148	23.38511
456	8.63813	2.5554278	0.8396	0.8349	7.016365	23.38458
457	8.63710	2.5551589	0.8427	0.8381	7.016622	23.38255
458	8.63634	2.5548957	0.8458	0.8412	7.016841	23.38041
459	8.63602	2.5542778	0.8489	0.8443	7.017164	23.37441
460	8.63634	2.5535913	0.8460	0.8413	7.017431	23.36730
461	8.63710	2.5531622	0.8459	0.8413	7.017525	23.36249
462	8.63786	2.5533510	0.8338	0.8293	7.017340	23.36389
463	8.63878	2.5545295	0.8279	0.8233	7.016685	23.37513
464	8.63824	2.5558799	0.8279	0.8234	7.016146	23.38905
465	8.63537	2.5557998	0.8281	0.8235	7.016561	23.39014
466	8.63169	2.5546268	0.8310	0.8265	7.017578	23.38078
467	8.62996	2.5529449	0.8371	0.8325	7.018568	23.36502
468	8.62931	2.5518639	0.8251	0.8206	7.019143	23.35459
469	8.62742	2.5517038	0.8314	0.8268	7.019466	23.35423
470	8.62666	2.5523387	0.8192	0.8147	7.019279	23.36111
471	8.62612	2.5537001	0.8192	0.8147	7.018734	23.37515
472	8.62331	2.5546269	0.8314	0.8269	7.018687	23.38632
473	8.61827	2.5543065	0.8345	0.8300	7.019498	23.38642
474	8.61444	2.5528707	0.8377	0.8331	7.020656	23.37452
475	8.61352	2.5513894	0.8440	0.8393	7.021448	23.36023
476	8.61276	2.5509319	0.8379	0.8333	7.021756	23.35613
477	8.61114	2.5511950	0.8410	0.8364	7.021852	23.35985
478	8.60978	2.5517554	0.8380	0.8334	7.021777	23.36637
479	8.60843	2.5522416	0.8349	0.8303	7.021735	23.37215
480	8.60638	2.5525276	0.8381	0.8335	7.021878	23.37638
481	8.60389	2.5526306	0.8291	0.8245	7.022160	23.37907
482	8.60119	2.5524990	0.8352	0.8306	7.022578	23.37953
483	8.59886	2.5522931	0.8415	0.8369	7.022979	23.37899
484	8.59735	2.5520987	0.8414	0.8368	7.023268	23.37803
485	8.59621	2.5511722	0.8385	0.8339	7.023838	23.36946
486	8.59627	2.5497084	0.8416	0.8370	7.024494	23.35470
487	8.59773	2.5489766	0.8355	0.8309	7.024633	23.34638
488	8.60021	2.5490738	0.8356	0.8310	7.024259	23.34572
489	8.60340	2.5498398	0.8296	0.8251	7.023489	23.35132
490	8.60432	2.5507719	0.8266	0.8221	7.022945	23.36009
491	8.60265	2.5509377	0.8297	0.8251	7.023092	23.36286
492	8.59984	2.5504517	0.8328	0.8282	7.023685	23.35983
493	8.59865	2.5497084	0.8360	0.8314	7.024179	23.35314
494	8.59924	2.5490452	0.8269	0.8224	7.024401	23.34608
495	8.60048	2.5487822	0.8331	0.8285	7.024355	23.34261
496	8.60124	2.5486507	0.8330	0.8284	7.024315	23.34079
497	8.60167	2.5485935	0.8392	0.8346	7.024283	23.33993
498	8.60184	2.5487822	0.8515	0.8469	7.024177	23.34172
499	8.60178	2.5493081	0.8455	0.8408	7.023945	23.34704
500	8.60135	2.5491538	0.8426	0.8380	7.024072	23.34578
501	8.60027	2.5478790	0.8487	0.8440	7.024794	23.33367
502	8.59994	2.5469188	0.8426	0.8380	7.025272	23.32423
503	8.60021	2.5469759	0.8367	0.8321	7.025210	23.32463
504	8.60070	2.5478733	0.8398	0.8352	7.024739	23.33333
505	8.60043	2.5488851	0.8367	0.8321	7.024316	23.34368
506	8.59843	2.5489651	0.8398	0.8352	7.024545	23.34580
507	8.59594	2.5483306	0.8460	0.8414	7.025162	23.34106
508	8.59438	2.5475990	0.8431	0.8384	7.025701	23.33474
509	8.59421	2.5471589	0.8492	0.8445	7.025922	23.33042
510	8.59443	2.5464959	0.8370	0.8324	7.026194	23.32361
511	8.59465	2.5459930	0.8341	0.8295	7.026393	23.31841
512	8.59459	2.5464731	0.8281	0.8235	7.026183	23.32328
513	8.59438	2.5482277	0.8282	0.8236	7.025416	23.34107
514	8.59248	2.5496055	0.8283	0.8237	7.025042	23.35617
515	8.58719	2.5493083	0.8375	0.8329	7.025879	23.35667
516	8.58119	2.5476391	0.8406	0.8359	7.027431	23.34384
517	8.57870	2.5456960	0.8437	0.8391	7.028643	23.32593
518	8.57671	2.5449075	0.8376	0.8330	7.029266	23.31931
519	8.57384	2.5449590	0.8437	0.8391	7.029622	23.32171
520	8.57228	2.5479307	0.8561	0.8514	7.028482	23.35265
521	8.54403	2.5676844	1.0086	1.0030	7.023253	23.57028
522	8.34834	2.5935376	1.2311	1.2244	7.037332	23.96341
523	8.12597	2.5965430	1.4658	1.4577	7.065450	24.14592
524	7.96274	2.6017258	1.7127	1.7033	7.084790	24.31165
525	7.85032	2.6080013	1.9870	1.9761	7.096865	24.45442
526	7.77214	2.6108962	2.2614	2.2489	7.105965	24.53898
527	7.71705	2.6154190	2.5540	2.5400	7.111206	24.62442
528	7.68481	2.5982853	2.8406	2.8250	7.123691	24.46973
529	7.67202	2.5972206	3.1362	3.1189	7.125924	24.46758
530	7.65877	2.6208860	3.4228	3.4040	7.116433	24.72196
531	7.64019	2.6337746	3.7217	3.7013	7.112783	24.86876
532	7.62235	2.6333931	4.0263	4.0042	7.115358	24.87742
533	7.61017	2.6347122	4.3282	4.3044	7.116365	24.89971
534	7.60284	2.6354008	4.6238	4.5983	7.117022	24.91200
535	7.59777	2.6350133	4.9164	4.8894	7.117891	24.91149
536	7.59403	2.6478921	5.2152	5.1864	7.112240	25.04794
537	7.58797	2.6589707	5.5109	5.4805	7.107757	25.16746
538	7.57031	2.6743752	5.7884	5.7565	7.102746	25.34058
539	7.52982	2.7061517	6.0718	6.0384	7.092908	25.70174
540	7.49057	2.7403005	6.3737	6.3385	7.081714	26.08817
541	7.46035	2.7543286	6.6540	6.6173	7.078954	26.25793
542	7.44070	2.7756556	6.9589	6.9206	7.071280	26.49672
543	7.42752	2.8029347	7.2638	7.2238	7.059884	26.79370
544	7.41854	2.8265832	7.5655	7.5238	7.049679	27.04971
545	7.41214	2.8430975	7.8550	7.8117	7.042569	27.22881
546	7.40888	2.8689950	8.1417	8.0968	7.030537	27.50477
547	7.41182	2.9026252	8.4341	8.3876	7.014000	27.85800
548	7.41996	2.9215198	8.7299	8.6817	7.003895	28.05138
549	7.43261	2.9461426	9.0256	8.9758	6.990483	28.30188
550	7.44291	2.9684423	9.3244	9.2730	6.978504	28.52979
551	7.44705	2.9795371	9.6169	9.5639	6.972675	28.64397
552	7.44553	2.9847754	9.8974	9.8428	6.970363	28.70071
553	7.44254	2.9885928	10.1991	10.1428	6.968916	28.74359
554	7.44049	2.9912479	10.4947	10.4368	6.967907	28.77336
555	7.43907	2.9948682	10.7905	10.7309	6.966356	28.81286
556	7.43687	2.9990545	11.0831	11.0219	6.964633	28.85904
557	7.43429	3.0003413	11.3850	11.3221	6.964344	28.87473
558	7.43209	3.0016586	11.6654	11.6009	6.963994	28.89045
559	7.42988	3.0038929	11.9550	11.8890	6.963205	28.91591
560	7.42789	3.0076284	12.2385	12.1709	6.961670	28.95716
561	7.42762	3.0115357	12.5402	12.4709	6.959837	28.99880
562	7.42852	3.0141437	12.8298	12.7589	6.958483	29.02567
563	7.42946	3.0183097	13.1560	13.0833	6.956376	29.06905
564	7.43046	3.0234152	13.4669	13.3924	6.953813	29.12239
565	7.42836	3.0361718	13.7657	13.6896	6.947973	29.25979
566	7.41660	3.0440162	14.0522	13.9746	6.945681	29.35315
567	7.40306	3.0475567	14.3418	14.2625	6.945667	29.40222
568	7.39162	3.0509950	14.6312	14.5503	6.945441	29.44846
569	7.38244	3.0529072	14.9177	14.8353	6.945665	29.47654
570	7.37589	3.0542943	15.2105	15.1264	6.945816	29.49679
571	7.37164	3.0553944	15.5123	15.4265	6.945820	29.51201
572	7.36897	3.0570508	15.8049	15.7175	6.945361	29.53185
573	7.36624	3.0584263	16.0916	16.0025	6.945044	29.54873
574	7.36383	3.0591357	16.3841	16.2935	6.945007	29.55823
575	7.36236	3.0602914	16.6737	16.5815	6.944639	29.57170
576	7.36079	3.0623036	16.9936	16.8996	6.943874	29.59439
577	7.35890	3.0638085	17.3047	17.2089	6.943390	29.61194
578	7.35665	3.0645550	17.5912	17.4938	6.943316	29.62172
579	7.35523	3.0650874	17.9051	17.8060	6.943241	29.62848
580	7.35429	3.0656566	18.2070	18.1062	6.943090	29.63524
581	7.35330	3.0661951	18.5027	18.4002	6.942960	29.64171
582	7.35256	3.0666726	18.7922	18.6881	6.942827	29.64732
583	7.35230	3.0671255	19.0969	18.9911	6.942648	29.65225
584	7.35230	3.0674072	19.3775	19.2701	6.942518	29.65514
585	7.35188	3.0678540	19.6733	19.5643	6.942361	29.66014
586	7.35130	3.0690722	19.9628	19.8522	6.941853	29.67353
587	7.34999	3.0725440	20.2554	20.1431	6.940352	29.71163
588	7.34837	3.0766545	20.5480	20.4341	6.938584	29.75683
589	7.34627	3.0787934	20.8407	20.7251	6.937821	29.78137
590	7.34360	3.0803933	21.1394	21.0222	6.937387	29.80065
591	7.34156	3.0820916	21.4321	21.3133	6.936829	29.82044
592	7.33988	3.0847839	21.7278	21.6073	6.935747	29.85055
593	7.33847	3.0874157	22.0265	21.9043	6.934663	29.87979
594	7.33710	3.0889620	22.3130	22.1892	6.934093	29.89739
595	7.33569	3.0901773	22.6085	22.4831	6.933689	29.91149
596	7.33365	3.0915277	22.9013	22.7742	6.933297	29.92757
597	7.33140	3.0932591	23.2092	23.0804	6.932748	29.94792
598	7.33030	3.0944934	23.5018	23.3714	6.932295	29.96195
599	7.32998	3.0957463	23.8005	23.6683	6.931738	29.97551
600	7.32967	3.0974908	24.0902	23.9564	6.930944	29.99433
601	7.32951	3.0985783	24.3827	24.2473	6.930446	30.00598
602	7.32930	3.0991621	24.6721	24.5351	6.930197	30.01228
603	7.32857	3.0995800	24.9619	24.8232	6.930092	30.01727
604	7.32789	3.1002499	25.2485	25.1083	6.929859	30.02490
605	7.32752	3.1009935	25.5471	25.4052	6.929553	30.03305
606	7.32705	3.1016390	25.8398	25.6962	6.929306	30.04025
607	7.32663	3.1023951	26.1262	25.9811	6.929000	30.04858
608	7.32621	3.1037906	26.4221	26.2752	6.928386	30.06376
609	7.32448	3.1047621	26.7177	26.5692	6.928137	30.07554
610	7.32281	3.1058813	27.0104	26.8602	6.927810	30.08885
611	7.32134	3.1088951	27.3090	27.1572	6.926547	30.12228
612	7.31966	3.1108147	27.6048	27.4513	6.925836	30.14418
613	7.31799	3.1118978	27.8974	27.7423	6.925526	30.15712
614	7.31652	3.1131227	28.2083	28.0514	6.925123	30.17138
615	7.31448	3.1143661	28.5133	28.3547	6.924781	30.18636
616	7.30993	3.1179928	28.8056	28.6454	6.923601	30.22908
617	7.30333	3.1211528	29.0985	28.9366	6.922893	30.26860
618	7.29668	3.1223975	29.3910	29.2274	6.923112	30.28764
619	7.29155	3.1234391	29.6805	29.5154	6.923244	30.30318
620	7.28758	3.1240986	29.9763	29.8095	6.923418	30.31361
621	7.28407	3.1245363	30.2598	30.0914	6.923641	30.32125
622	7.28182	3.1250110	30.5279	30.3580	6.923693	30.32820
623	7.28067	3.1253440	30.8420	30.6703	6.923680	30.33264
624	7.28031	3.1256954	31.1469	30.9734	6.923561	30.33660
625	7.27968	3.1259051	31.4395	31.2644	6.923543	30.33927
626	7.27895	3.1262319	31.7200	31.5433	6.923480	30.34330
627	7.27853	3.1264416	32.0126	31.8343	6.923436	30.34578
628	7.27827	3.1266204	32.2961	32.1162	6.923388	30.34781
629	7.27779	3.1269473	32.5948	32.4132	6.923294	30.35160
630	7.27732	3.1272125	32.8753	32.6920	6.923229	30.35473
631	7.27670	3.1274530	33.1678	32.9829	6.923196	30.35774
632	7.27596	3.1276011	33.4483	33.2619	6.923220	30.35985
633	7.27591	3.1277183	33.7440	33.5559	6.923176	30.36102
634	7.27555	3.1278972	34.0305	33.8408	6.923140	30.36313
635	7.27518	3.1280206	34.3324	34.1409	6.923131	30.36465
636	7.27513	3.1280454	34.6156	34.4226	6.923131	30.36483
637	7.27492	3.1281935	34.9054	34.7107	6.923091	30.36648
638	7.27481	3.1282244	35.1950	34.9987	6.923095	30.36677
639	7.27455	3.1282553	35.4907	35.2927	6.923118	30.36720
640	7.27419	3.1283540	35.7804	35.5807	6.923121	30.36846
641	7.27424	3.1284035	36.0790	35.8777	6.923096	30.36881
642	7.27382	3.1285885	36.3625	36.1595	6.923064	30.37104
643	7.27272	3.1287921	36.6551	36.4505	6.923106	30.37406
644	7.27110	3.1289402	36.9539	36.7476	6.923239	30.37694
645	7.26979	3.1292363	37.2435	37.0356	6.923261	30.38114
646	7.26890	3.1295941	37.5360	37.3264	6.923203	30.38563
647	7.26843	3.1300074	37.8347	37.6234	6.923068	30.39035
648	7.26765	3.1302481	38.1243	37.9114	6.923053	30.39350
649	7.26718	3.1303160	38.4232	38.2085	6.923084	30.39451
650	7.26644	3.1302483	38.7463	38.5299	6.923213	30.39428
651	7.26571	3.1303594	39.0572	38.8389	6.923255	30.39598
652	7.26535	3.1304705	39.3437	39.1239	6.923251	30.39737
653	7.26430	3.1303966	39.6424	39.4209	6.923421	30.39736
654	7.26305	3.1304583	39.9350	39.7117	6.923550	30.39899
655	7.26200	3.1306065	40.2276	40.0027	6.923612	30.40137
656	7.26090	3.1306929	40.5110	40.2845	6.923710	30.40314
657	7.26048	3.1307239	40.8037	40.5755	6.923752	30.40371
658	7.26027	3.1307856	41.0903	40.8605	6.923754	30.40443
659	7.25965	3.1307240	41.3920	41.1605	6.923866	30.40419
660	7.25912	3.1307550	41.6938	41.4606	6.923921	30.40485
661	7.25871	3.1307859	41.9834	41.7485	6.923963	30.40542
662	7.25865	3.1308168	42.2759	42.0393	6.923960	30.40567
663	7.25839	3.1308724	42.5565	42.3184	6.923971	30.40637
664	7.25792	3.1309034	42.8552	42.6154	6.924019	30.40698
665	7.25735	3.1309035	43.1538	42.9123	6.924096	30.40736
666	7.25677	3.1310516	43.4435	43.2003	6.924100	30.40932
667	7.25567	3.1311751	43.7392	43.4943	6.924181	30.41148
668	7.25468	3.1313232	44.0288	43.7822	6.924236	30.41382
669	7.25363	3.1313480	44.3244	44.0761	6.924358	30.41487
670	7.25238	3.1314098	44.6263	44.3763	6.924487	30.41651
671	7.25118	3.1315024	44.9188	44.6672	6.924595	30.41843
672	7.24987	3.1315888	45.2147	44.9613	6.924719	30.42038
673	7.24856	3.1316198	45.5071	45.2522	6.924870	30.42173
674	7.24741	3.1316199	45.8028	45.5462	6.925016	30.42261
675	7.24637	3.1317125	46.0895	45.8312	6.925105	30.42440
676	7.24522	3.1318607	46.3819	46.1220	6.925180	30.42687
677	7.24470	3.1320150	46.6655	46.4039	6.925175	30.42886
678	7.24454	3.1322742	46.9459	46.6827	6.925074	30.43166
679	7.24511	3.1324840	47.2356	46.9707	6.924909	30.43328
680	7.24585	3.1326321	47.5342	47.2677	6.924754	30.43410
681	7.24595	3.1326322	47.8238	47.5556	6.924747	30.43388
682	7.24569	3.1329346	48.1226	47.8526	6.924639	30.43723
683	7.24569	3.1331136	48.4213	48.1496	6.924559	30.43902
684	7.24543	3.1332001	48.7200	48.4467	6.924555	30.44004
685	7.24517	3.1335272	49.0249	48.7498	6.924435	30.44365
686	7.24490	3.1337679	49.3203	49.0435	6.924357	30.44634
687	7.24480	3.1338544	49.6162	49.3377	6.924334	30.44723
688	7.24433	3.1339162	49.9149	49.6346	6.924367	30.44818
689	7.24412	3.1351690	50.1984	49.9165	6.923794	30.46170
690	7.24642	3.1359713	50.5032	50.2196	6.923133	30.46816
691	7.24898	3.1363911	50.7867	50.5015	6.922623	30.47029
692	7.25071	3.1366010	51.0854	50.7985	6.922318	30.47090
693	7.25175	3.1368110	51.3872	51.0985	6.922095	30.47210
694	7.25191	3.1370456	51.6767	51.3864	6.921968	30.47435
695	7.25128	3.1372556	51.9633	51.6714	6.921950	30.47703
696	7.25045	3.1374656	52.2590	51.9654	6.921956	30.47989
697	7.24966	3.1375891	52.5547	52.2594	6.921998	30.48178
698	7.24924	3.1377065	52.8442	52.5472	6.921998	30.48328
699	7.24888	3.1377622	53.1338	52.8351	6.922022	30.48408
700	7.24872	3.1377931	53.4387	53.1382	6.922032	30.48441
701	7.24846	3.1378241	53.7253	53.4232	6.922055	30.48485
702	7.24804	3.1378859	54.0239	53.7201	6.922082	30.48575
703	7.24736	3.1378551	54.3225	54.0169	6.922186	30.48588
704	7.24647	3.1378244	54.6183	54.3111	6.922315	30.48620
705	7.24537	3.1377936	54.9077	54.5988	6.922469	30.48671
706	7.24396	3.1378246	55.2096	54.8989	6.922633	30.48815
707	7.24255	3.1378247	55.5052	55.1929	6.922811	30.48927
708	7.24135	3.1380655	55.7919	55.4779	6.922847	30.49279
709	7.24057	3.1381829	56.0844	55.7687	6.922892	30.49461
710	7.23978	3.1381830	56.3800	56.0626	6.922993	30.49517
711	7.23874	3.1384239	56.6757	56.3566	6.923010	30.49855
712	7.23889	3.1386030	56.9715	56.6507	6.922911	30.50021
713	7.23895	3.1386340	57.2671	56.9446	6.922895	30.50036
714	7.23754	3.1384242	57.5629	57.2387	6.923175	30.49922
715	7.23440	3.1388688	57.8615	57.5355	6.923349	30.50663
716	7.23288	3.1404496	58.1663	57.8386	6.922777	30.52483
717	7.23780	3.1426916	58.4925	58.1629	6.921103	30.54446
718	7.24647	3.1438900	58.8065	58.4751	6.919474	30.54954
719	7.25588	3.1450021	59.0960	58.7629	6.917798	30.55306
720	7.26488	3.1458672	59.3917	59.0569	6.916292	30.55428
721	7.27215	3.1464357	59.6812	59.3447	6.915139	30.55385
722	7.27717	3.1467324	59.9770	59.6388	6.914391	30.55247
723	7.27989	3.1467942	60.2724	59.9325	6.914037	30.55060
724	7.28057	3.1467634	60.5652	60.2237	6.913975	30.54954
725	7.28020	3.1468253	60.8517	60.5084	6.913995	30.55040
726	7.27910	3.1466771	61.1444	60.7995	6.914206	30.54965
727	7.27701	3.1465227	61.4521	61.1054	6.914541	30.54970
728	7.27476	3.1465228	61.7449	61.3965	6.914820	30.55156
729	7.27251	3.1463746	62.0376	61.6876	6.915171	30.55182
730	7.26974	3.1462573	62.3272	61.9754	6.915571	30.55288
731	7.26723	3.1462265	62.6167	62.2632	6.915897	30.55463
732	7.26540	3.1462328	62.9245	62.5693	6.916123	30.55618
733	7.26399	3.1462576	63.2081	62.8513	6.916288	30.55757
734	7.26310	3.1462886	63.5006	63.1420	6.916388	30.55855
735	7.26231	3.1462887	63.7933	63.4330	6.916489	30.55912
736	7.26179	3.1462888	64.0828	63.7208	6.916558	30.55945
737	7.26137	3.1462580	64.3784	64.0148	6.916630	30.55936
738	7.26095	3.1461654	64.6771	64.3117	6.916731	30.55860
739	7.26022	3.1461037	64.9637	64.5967	6.916856	30.55846
740	7.25944	3.1461347	65.2623	64.8935	6.916942	30.55935
741	7.25902	3.1461348	65.5550	65.1845	6.916999	30.55959
742	7.25886	3.1461658	65.8476	65.4754	6.917009	30.55993
743	7.25865	3.1461659	66.1402	65.7663	6.917040	30.55999
744	7.25829	3.1461412	66.4206	66.0451	6.917102	30.55992
745	7.25756	3.1459868	66.7163	66.3390	6.917272	30.55877
746	7.25546	3.1455359	67.0089	66.6300	6.917750	30.55564
747	7.25086	3.1451776	67.2984	66.9178	6.918488	30.55573
748	7.24553	3.1450604	67.5882	67.2059	6.919200	30.55905
749	7.24125	3.1449987	67.8502	67.4664	6.919757	30.56205
750	7.23795	3.1449988	68.1399	67.7544	6.920164	30.56483
751	7.23571	3.1449989	68.4264	68.0392	6.920444	30.56669
752	7.23393	3.1449743	68.7525	68.3634	6.920678	30.56785
753	7.23215	3.1452710	69.0483	68.6574	6.920758	30.57248
754	7.23153	3.1454812	69.3225	68.9301	6.920738	30.57517
755	7.23147	3.1456296	69.5968	69.2028	6.920678	30.57669
756	7.23153	3.1457162	69.8893	69.4936	6.920636	30.57745
757	7.23147	3.1457781	70.1850	69.7876	6.920619	30.57803
758	7.23106	3.1457967	70.4594	70.0604	6.920666	30.57848
759	7.22985	3.1457473	70.7429	70.3422	6.920842	30.57888
760	7.22829	3.1457474	71.0173	70.6150	6.921038	30.58015
761	7.22567	3.1456610	71.3069	70.9029	6.921404	30.58140
762	7.22197	3.1456735	71.6056	71.1999	6.921856	30.58468
763	7.21815	3.1457169	71.9073	71.4998	6.922306	30.58838
764	7.21523	3.1457170	72.1877	71.7786	6.922668	30.59085
765	7.21267	3.1456924	72.4712	72.0604	6.922998	30.59272
766	7.20990	3.1457173	72.7638	72.3513	6.923329	30.59530
767	7.20781	3.1457483	73.0442	72.6301	6.923574	30.59736
768	7.20609	3.1456928	73.3399	72.9241	6.923817	30.59816
769	7.20431	3.1456929	73.6325	73.2149	6.924039	30.59960
770	7.20285	3.1456930	73.9128	73.4935	6.924223	30.60077
771	7.20160	3.1456931	74.1934	73.7725	6.924381	30.60175
772	7.20029	3.1455696	74.4769	74.0544	6.924606	30.60145
773	7.19815	3.1453596	74.7665	74.3423	6.924974	30.60096
774	7.19544	3.1452732	75.0438	74.6180	6.925353	30.60231
775	7.19257	3.1451806	75.3304	74.9029	6.925753	30.60373
776	7.19053	3.1451498	75.6076	75.1785	6.926022	30.60507
777	7.18891	3.1451252	75.8914	75.4606	6.926237	30.60611
778	7.18782	3.1450944	76.1716	75.7392	6.926391	30.60663
779	7.18672	3.1450636	76.4489	76.0148	6.926545	30.60714
780	7.18609	3.1451255	76.7356	76.2998	6.926598	30.60823
781	7.18573	3.1450947	77.0221	76.5847	6.926663	30.60810
782	7.18531	3.1450639	77.2934	76.8544	6.926734	30.60802
783	7.18510	3.1450640	77.5737	77.1331	6.926765	30.60808
784	7.18494	3.1450332	77.8663	77.4239	6.926805	30.60775
785	7.18474	3.1450333	78.1561	77.7120	6.926836	30.60781
786	7.18442	3.1450025	78.4518	78.0060	6.926895	30.60762
787	7.18421	3.1449161	78.7807	78.3330	6.926969	30.60673
788	7.18374	3.1447926	79.0794	78.6299	6.927092	30.60568
789	7.18234	3.1446629	79.3570	78.9059	6.927332	30.60541
790	7.18004	3.1445580	79.6344	79.1816	6.927669	30.60619
791	7.17811	3.1444963	79.9208	79.4664	6.927940	30.60711
792	7.17644	3.1444964	80.2042	79.7481	6.928149	30.60846
793	7.17519	3.1445274	80.4815	80.0238	6.928293	30.60978
794	7.17419	3.1445831	80.7621	80.3027	6.928393	30.61113
795	7.17372	3.1445832	81.0395	80.5784	6.928455	30.61143
796	7.17331	3.1445833	81.3229	80.8602	6.928512	30.61167
797	7.17299	3.1445834	81.6096	81.1452	6.928556	30.61182
798	7.17237	3.1445835	81.8961	81.4300	6.928638	30.61225
799	7.17132	3.1444106	82.1796	81.7118	6.928855	30.61118
800	7.16908	3.1443180	82.4508	81.9815	6.929179	30.61205
801	7.16699	3.1443490	82.7464	82.2754	6.929424	30.61410
802	7.16559	3.1443491	83.0299	82.5571	6.929602	30.61523
803	7.16475	3.1443801	83.3011	82.8268	6.929694	30.61618
804	7.16386	3.1443802	83.5815	83.1055	6.929808	30.61684
805	7.16251	3.1439602	83.8652	83.3875	6.930183	30.61339
806	7.15917	3.1434476	84.1305	83.6512	6.930844	30.61070
807	7.15453	3.1431821	84.4138	83.9329	6.931545	30.61183
808	7.15025	3.1427930	84.6881	84.2055	6.932262	30.61130
809	7.14446	3.1420520	84.9686	84.4844	6.933334	30.60832
810	7.13743	3.1415704	85.2704	84.7845	6.934433	30.60923
811	7.12893	3.1408789	85.5540	85.0663	6.935813	30.60918
812	7.11991	3.1401627	85.8160	85.3268	6.937268	30.60933
813	7.10871	3.1392058	86.0903	85.5995	6.939109	30.60881
814	7.09824	3.1389837	86.3555	85.8631	6.940504	30.61558
815	7.09059	3.1388234	86.6450	86.1510	6.941525	30.62051
816	7.08533	3.1386691	86.9100	86.4144	6.942249	30.62339
817	7.08111	3.1384655	87.1753	86.6781	6.942870	30.62482
818	7.07747	3.1382619	87.4466	86.9478	6.943421	30.62573
819	7.07492	3.1382250	87.7210	87.2205	6.943756	30.62747
820	7.07294	3.1381016	87.9892	87.4872	6.944064	30.62777
821	7.07065	3.1379844	88.2666	87.7629	6.944407	30.62842
822	7.06789	3.1375956	88.5683	88.0628	6.944941	30.62653
823	7.06446	3.1370896	88.8762	88.3690	6.945614	30.62398
824	7.05956	3.1369107	89.1566	88.6477	6.946306	30.62626
825	7.05499	3.1368244	89.4217	88.9112	6.946915	30.62927
826	7.05098	3.1364665	89.7021	89.1899	6.947586	30.62884
827	7.04630	3.1359544	89.9704	89.4566	6.948415	30.62734
828	7.04037	3.1356583	90.2418	89.7264	6.949292	30.62929
829	7.03480	3.1353622	90.5069	89.9900	6.950125	30.63091
830	7.03070	3.1352389	90.7904	90.2718	6.950694	30.63310
831	7.02747	3.1350662	91.0646	90.5444	6.951180	30.63397
832	7.02446	3.1349120	91.3329	90.8111	6.951630	30.63486
833	7.02103	3.1348011	91.6135	91.0900	6.952111	30.63659
834	7.01812	3.1346469	91.8814	91.3563	6.952549	30.63738
835	7.01520	3.1345544	92.1529	91.6262	6.952957	30.63885
836	7.01250	3.1344682	92.4272	91.8988	6.953337	30.64020
837	7.01011	3.1344991	92.7168	92.1867	6.953621	30.64253
838	7.00860	3.1344375	92.9973	92.4656	6.953842	30.64307
839	7.00720	3.1344376	93.2685	92.7351	6.954020	30.64420
840	7.00653	3.1345549	93.5486	93.0136	6.954051	30.64594
841	7.00595	3.1347340	93.8233	93.2867	6.954039	30.64827
842	7.00580	3.1347649	94.0944	93.5561	6.954049	30.64862
843	7.00606	3.1347650	94.3657	93.8258	6.954022	30.64827
844	7.00642	3.1348577	94.6430	94.1015	6.953938	30.64882
845	7.00653	3.1349256	94.9143	94.3712	6.953898	30.64934
846	7.00658	3.1349751	95.1915	94.6468	6.953873	30.64971
847	7.00684	3.1350060	95.4661	94.9197	6.953831	30.64969
848	7.00689	3.1350369	95.7464	95.1984	6.953815	30.64985
849	7.00689	3.1350741	96.0179	95.4682	6.953803	30.65013
850	7.00699	3.1350803	96.2919	95.7406	6.953793	30.64998
851	7.00642	3.1350063	96.5724	96.0194	6.953905	30.64956
852	7.00517	3.1348275	96.8497	96.2950	6.954151	30.64861
853	7.00247	3.1345314	97.1332	96.5769	6.954633	30.64768
854	6.99743	3.1334270	97.4106	96.8526	6.955797	30.64009
855	6.98798	3.1325819	97.6880	97.1284	6.957377	30.63923
856	6.97676	3.1314656	97.9684	97.4071	6.959308	30.63699
857	6.96565	3.1311943	98.2610	97.6979	6.960813	30.64381
858	6.95714	3.1310156	98.5598	97.9949	6.961954	30.64931
859	6.95148	3.1308677	98.8493	98.2827	6.962728	30.65261
860	6.94608	3.1303621	99.1206	98.5524	6.963646	30.65182
861	6.93954	3.1292275	99.3856	98.8158	6.965012	30.64522
862	6.92964	3.1278032	99.6631	99.0917	6.966936	30.63848
863	6.91932	3.1275630	99.9434	99.3703	6.968331	30.64494
864	6.91169	3.1276679	100.2178	99.6430	6.969225	30.65274
865	6.90838	3.1283093	100.4920	99.9156	6.969324	30.66252
866	6.90692	3.1280073	100.7543	100.1763	6.969657	30.66042
867	6.90236	3.1264784	101.0405	100.4608	6.970976	30.64778
868	6.89055	3.1246232	101.3210	100.7397	6.973350	30.63805
869	6.87661	3.1239393	101.6015	101.0185	6.975413	30.64292
870	6.86485	3.1235266	101.8787	101.2940	6.977073	30.64879
871	6.85600	3.1234651	102.1472	101.5609	6.978202	30.65589
872	6.84968	3.1232866	102.4124	101.8245	6.979076	30.65946
873	6.84570	3.1231388	102.6896	102.1001	6.979647	30.66129
874	6.84280	3.1230896	102.9670	102.3758	6.980035	30.66321
875	6.84062	3.1230466	103.2383	102.6454	6.980330	30.66456
876	6.83938	3.1229912	103.5155	102.9210	6.980517	30.66494
877	6.83855	3.1229913	103.7900	103.1939	6.980625	30.66556
878	6.83788	3.1229668	104.0706	103.4728	6.980726	30.66576
879	6.83788	3.1229299	104.3417	103.7422	6.980749	30.66524
880	6.83798	3.1229608	104.6128	104.0118	6.980727	30.66536
881	6.83835	3.1228746	104.8934	104.2907	6.980730	30.66398
882	6.83778	3.1227822	105.1614	104.5570	6.980852	30.66336
883	6.83679	3.1229672	105.4329	104.8269	6.980888	30.66613
884	6.83705	3.1231706	105.7011	105.0935	6.980761	30.66798
885	6.83747	3.1232878	105.9784	105.3691	6.980658	30.66876
886	6.83824	3.1232878	106.2588	105.6478	6.980567	30.66794
887	6.83788	3.1231215	106.5302	105.9176	6.980700	30.66634
888	6.83700	3.1232264	106.8073	106.1931	6.980762	30.66814
889	6.83643	3.1233744	107.0878	106.4719	6.980766	30.67013
890	6.83638	3.1235532	107.3742	106.7565	6.980690	30.67199
891	6.83659	3.1235902	107.6517	107.0323	6.980651	30.67208
892	6.83685	3.1236150	107.9260	107.3051	6.980613	30.67199
893	6.83726	3.1236767	108.2034	107.5807	6.980537	30.67217
894	6.83731	3.1235843	108.5142	107.8897	6.980582	30.67098
895	6.83705	3.1233749	108.8129	108.1866	6.980724	30.66880
896	6.83514	3.1231716	109.0841	108.4562	6.981066	30.66818
897	6.83229	3.1231101	109.3554	108.7258	6.981454	30.66993
898	6.82939	3.1230301	109.6237	108.9925	6.981857	30.67152
899	6.82670	3.1230241	109.8980	109.2651	6.982198	30.67373
900	6.82427	3.1230242	110.1721	109.5376	6.982504	30.67578
901	6.82189	3.1229010	110.4496	109.8135	6.982865	30.67644
902	6.81920	3.1228457	110.7451	110.1072	6.983231	30.67811
903	6.81687	3.1227534	111.0316	110.3920	6.983570	30.67905
904	6.81486	3.1226672	111.3029	110.6616	6.983868	30.67979
905	6.81341	3.1225749	111.5682	110.9253	6.984098	30.67996
906	6.81150	3.1223100	111.8485	111.2039	6.984471	30.67867
907	6.80839	3.1221314	112.1227	111.4764	6.984949	30.67937
908	6.80539	3.1222486	112.3911	111.7432	6.985267	30.68320
909	6.80348	3.1224028	112.6683	112.0187	6.985434	30.68646
910	6.80255	3.1226678	112.9458	112.2945	6.985424	30.69005
911	6.80208	3.1228158	113.2169	112.5641	6.985414	30.69195
912	6.80151	3.1228775	113.5003	112.8458	6.985459	30.69300
913	6.80126	3.1229022	113.7717	113.1155	6.985485	30.69338
914	6.80110	3.1229085	114.0583	113.4003	6.985507	30.69346
915	6.80105	3.1229640	114.3172	113.6577	6.985491	30.69399
916	6.80105	3.1230257	114.5976	113.9364	6.985466	30.69454
917	6.80100	3.1231121	114.8871	114.2242	6.985436	30.69539
918	6.80110	3.1231122	115.1614	114.4968	6.985429	30.69518
919	6.80131	3.1231739	115.4236	114.7574	6.985378	30.69554
920	6.80136	3.1232048	115.6950	115.0271	6.985362	30.69571
921	6.80136	3.1232911	115.9660	115.2966	6.985325	30.69653
922	6.80151	3.1233282	116.2404	115.5693	6.985293	30.69667
923	6.80157	3.1233159	116.5177	115.8449	6.985298	30.69636
924	6.80172	3.1233530	116.7951	116.1206	6.985266	30.69650
925	6.80188	3.1233839	117.0785	116.4023	6.985238	30.69657
926	6.80198	3.1234394	117.3498	116.6719	6.985203	30.69696
927	6.80208	3.1234395	117.6272	116.9477	6.985196	30.69675
928	6.80208	3.1234704	117.9076	117.2263	6.985186	30.69695
929	6.80234	3.1235629	118.1910	117.5080	6.985115	30.69760
930	6.80245	3.1236801	118.4956	117.8108	6.985050	30.69865
931	6.80286	3.1239452	118.7946	118.1080	6.984874	30.70102
932	6.80291	3.1241425	119.0869	118.3985	6.984776	30.70299
933	6.80167	3.1240378	119.3461	118.6562	6.984987	30.70285
934	6.79852	3.1237976	119.6234	118.9317	6.985501	30.70293
935	6.79428	3.1235574	119.9005	119.2072	6.986150	30.70398
936	6.78978	3.1235328	120.1779	119.4829	6.986724	30.70760
937	6.78637	3.1235330	120.4586	119.7619	6.987152	30.71053
938	6.78347	3.1234406	120.7267	120.0284	6.987562	30.71199
939	6.78058	3.1233545	121.0039	120.3039	6.987968	30.71351
940	6.77706	3.1232067	121.2845	120.5828	6.988482	30.71492
941	6.77407	3.1231575	121.5618	120.8583	6.988883	30.71694
942	6.77148	3.1230837	121.8392	121.1341	6.989245	30.71832
943	6.76957	3.1229975	122.1163	121.4095	6.989530	30.71897
944	6.76766	3.1228189	122.3876	121.6792	6.989860	30.71861
945	6.76487	3.1225787	122.6620	121.9519	6.990330	30.71837
946	6.76146	3.1224925	122.9363	122.2246	6.990801	30.72036
947	6.75841	3.1223756	123.2044	122.4910	6.991242	30.72169
948	6.75578	3.1220984	123.5033	122.7880	6.991711	30.72089
949	6.75185	3.1215748	123.7929	123.0759	6.992463	30.71857
950	6.74622	3.1211252	124.0730	123.3544	6.993389	30.71859
951	6.74013	3.1209467	124.3445	123.6242	6.994238	30.72197
952	6.73502	3.1207435	124.6307	123.9086	6.994978	30.72420
953	6.73167	3.1206820	124.9114	124.1876	6.995430	30.72641
954	6.72919	3.1206513	125.1795	124.4540	6.995758	30.72817
955	6.72723	3.1206268	125.4629	124.7357	6.996019	30.72953
956	6.72563	3.1205653	125.7403	125.0114	6.996254	30.73017
957	6.72372	3.1204176	126.0115	125.2810	6.996569	30.73015
958	6.72124	3.1201220	126.2797	125.5475	6.997029	30.72902
959	6.71819	3.1197648	126.5540	125.8202	6.997589	30.72773
960	6.71407	3.1196725	126.8314	126.0958	6.998153	30.73030
961	6.71040	3.1196480	127.1055	126.3684	6.998625	30.73319
962	6.70813	3.1195865	127.3738	126.6350	6.998943	30.73443
963	6.70622	3.1195004	127.6482	126.9077	6.999228	30.73507
964	6.70406	3.1194081	127.9193	127.1771	6.999548	30.73589
965	6.70210	3.1192789	128.2178	127.4738	6.999862	30.73610
966	6.70019	3.1191435	128.5135	127.7678	7.000172	30.73620
967	6.69833	3.1191128	128.7970	128.0495	7.000424	30.73740
968	6.69617	3.1188727	129.0621	128.3130	7.000817	30.73660
969	6.69287	3.1185217	129.3365	128.5857	7.001407	30.73561
970	6.68853	3.1183124	129.6139	128.8614	7.002054	30.73708
971	6.68379	3.1181340	129.8820	129.1279	7.002738	30.73926
972	6.67951	3.1179309	130.1471	129.3913	7.003376	30.74076
973	6.67513	3.1176847	130.4183	129.6609	7.004048	30.74188
974	6.67121	3.1174569	130.6866	129.9275	7.004654	30.74279
975	6.66714	3.1172785	130.9671	130.2063	7.005254	30.74436
976	6.66281	3.1171308	131.2414	130.4790	7.005871	30.74651
977	6.65915	3.1170078	131.5125	130.7484	7.006393	30.74832
978	6.65554	3.1167123	131.7900	131.0242	7.006994	30.74821
979	6.65147	3.1165647	132.0612	131.2937	7.007579	30.75012
980	6.64813	3.1164786	132.3354	131.5662	7.008044	30.75206
981	6.64519	3.1163740	132.6191	131.8481	7.008467	30.75343
982	6.64272	3.1162694	132.8809	132.1084	7.008832	30.75438
983	6.64045	3.1161526	133.1523	132.3781	7.009177	30.75502
984	6.63798	3.1160357	133.4264	132.6505	7.009549	30.75583
985	6.63535	3.1159127	133.7068	132.9292	7.009943	30.75672
986	6.63360	3.1157773	133.9902	133.2109	7.010234	30.75669
987	6.63169	3.1156481	134.2737	133.4927	7.010541	30.75686
988	6.62964	3.1155867	134.5480	133.7652	7.010834	30.75791
989	6.62773	3.1155621	134.8192	134.0348	7.011089	30.75923
990	6.62639	3.1155007	135.0904	134.3043	7.011291	30.75963
991	6.62516	3.1153530	135.3618	134.5741	7.011524	30.75901
992	6.62356	3.1152484	135.6391	134.8496	7.011781	30.75917
993	6.62217	3.1151439	135.9073	135.1162	7.012012	30.75916
994	6.61996	3.1148793	136.1817	135.3889	7.012425	30.75813
995	6.61666	3.1147009	136.4771	135.6825	7.012930	30.75900
996	6.61378	3.1146148	136.7576	135.9612	7.013338	30.76052
997	6.61177	3.1143194	137.0290	136.2309	7.013740	30.75897
998	6.60904	3.1140794	137.3001	136.5004	7.014205	30.75868
999	6.60616	3.1139626	137.5744	136.7731	7.014628	30.75986
1000	6.60384	3.1138765	137.8699	137.0668	7.014966	30.76087
1001	6.60215	3.1137535	138.1716	137.3666	7.015245	30.76091
1002	6.60071	3.1137536	138.4641	137.6572	7.015430	30.76207
1003	6.59875	3.1136983	138.7354	137.9269	7.015707	30.76310
1004	6.59680	3.1135630	139.0004	138.1903	7.016024	30.76326
1005	6.59530	3.1134893	139.2657	138.4540	7.016252	30.76367
1006	6.59417	3.1134032	139.5461	138.7326	7.016442	30.76362
1007	6.59330	3.1133725	139.8265	139.0112	7.016572	30.76394
1008	6.59201	3.1132803	140.0977	139.2808	7.016784	30.76396
1009	6.59072	3.1131326	140.3720	139.5534	7.017024	30.76338
1010	6.58903	3.1130158	140.6370	139.8167	7.017299	30.76351
1011	6.58774	3.1129297	140.9142	140.0923	7.017508	30.76360
1012	6.58676	3.1129298	141.1857	140.3621	7.017635	30.76435
1013	6.58548	3.1128437	141.4541	140.6288	7.017844	30.76444
1014	6.58445	3.1126900	141.7282	140.9012	7.018055	30.76356
1015	6.58337	3.1126654	141.9904	141.1618	7.018207	30.76415
1016	6.58229	3.1126348	142.2523	141.4221	7.018363	30.76466
1017	6.58152	3.1126041	142.5236	141.6917	7.018480	30.76490
1018	6.58085	3.1125734	142.7918	141.9582	7.018584	30.76504
1019	6.58039	3.1125181	143.0537	142.2185	7.018675	30.76473
1020	6.57967	3.1125736	143.3341	142.4972	7.018743	30.76586
1021	6.57946	3.1124998	143.6025	142.7639	7.018811	30.76511
1022	6.57915	3.1124876	143.8585	143.0184	7.018861	30.76514
1023	6.57879	3.1124877	144.1356	143.2937	7.018911	30.76534
1024	6.57853	3.1124385	144.4010	143.5575	7.018973	30.76491
1025	6.57797	3.1123955	144.6690	143.8238	7.019071	30.76483
1026	6.57740	3.1122787	144.9341	144.0873	7.019205	30.76394
1027	6.57632	3.1121618	145.2055	144.3570	7.019404	30.76351
1028	6.57529	3.1119527	145.4768	144.6266	7.019642	30.76202
1029	6.57406	3.1119528	145.7479	144.8961	7.019802	30.76301
1030	6.57308	3.1118790	146.0130	145.1596	7.019966	30.76296
1031	6.57216	3.1118668	146.2903	145.4351	7.020093	30.76353
1032	6.57118	3.1116577	146.5495	145.6927	7.020325	30.76200
1033	6.56995	3.1115962	146.8236	145.9651	7.020515	30.76232
1034	6.56871	3.1116271	147.0857	146.2256	7.020659	30.76364
1035	6.56789	3.1116026	147.3633	146.5014	7.020780	30.76399
1036	6.56712	3.1114242	147.6618	146.7981	7.020972	30.76259
1037	6.56609	3.1112581	147.9513	147.0858	7.021189	30.76157
1038	6.56444	3.1111598	148.2226	147.3554	7.021449	30.76185
1039	6.56295	3.1111291	148.4877	147.6188	7.021656	30.76273
1040	6.56146	3.1109200	148.7528	147.8823	7.021952	30.76166
1041	6.56002	3.1108524	149.0150	148.1428	7.022171	30.76210
1042	6.55843	3.1108033	149.3016	148.4277	7.022400	30.76286
1043	6.55725	3.1105388	149.5757	148.7001	7.022686	30.76091
1044	6.55514	3.1103605	149.8439	148.9667	7.023043	30.76073
1045	6.55293	3.1101514	150.1059	149.2270	7.023429	30.76031
1046	6.55051	3.1097393	150.3803	149.4997	7.023943	30.75784
1047	6.54692	3.1094133	150.6483	149.7661	7.024561	30.75739
1048	6.54342	3.1093827	150.9107	150.0268	7.025018	30.76007
1049	6.54018	3.1093274	151.1816	150.2960	7.025455	30.76225
1050	6.53762	3.1092660	151.4467	150.5595	7.025812	30.76377
1051	6.53500	3.1088539	151.7089	150.8200	7.026352	30.76149
1052	6.53125	3.1086449	151.9860	151.0955	7.026930	30.76245
1053	6.52816	3.1085589	152.2452	151.3530	7.027364	30.76416
1054	6.52539	3.1083560	152.5197	151.6258	7.027818	30.76431
1055	6.52256	3.1081777	152.7878	151.8923	7.028266	30.76477
1056	6.51959	3.1081778	153.0498	152.1526	7.028643	30.76733
1057	6.51645	3.1082948	153.3211	152.4222	7.028982	30.77131
1058	6.51409	3.1084426	153.5893	152.6887	7.029209	30.77493
1059	6.51224	3.1084980	153.8514	152.9492	7.029417	30.77708
1060	6.51075	3.1084797	154.1134	153.2096	7.029618	30.77810
1061	6.50957	3.1084982	154.3755	153.4700	7.029762	30.77925
1062	6.50855	3.1084737	154.6437	153.7365	7.029908	30.77978
1063	6.50798	3.1084799	154.9149	154.0061	7.029981	30.78023
1064	6.50711	3.1084431	155.1739	154.2635	7.030114	30.78050
1065	6.50665	3.1084739	155.4362	154.5241	7.030162	30.78113
1066	6.50629	3.1084187	155.7133	154.7995	7.030240	30.78072
1067	6.50608	3.1083511	155.9786	155.0631	7.030305	30.78005
1068	6.50557	3.1082343	156.2466	155.3294	7.030434	30.77911
1069	6.50464	3.1081790	156.5148	155.5960	7.030582	30.77921
1070	6.50377	3.1082345	156.7829	155.8624	7.030669	30.78048
1071	6.50362	3.1082961	157.0603	156.1381	7.030663	30.78117
1072	6.50387	3.1084130	157.3592	156.4351	7.030579	30.78208
1073	6.50444	3.1085115	157.6514	156.7254	7.030465	30.78252
1074	6.50495	3.1084993	157.9227	156.9951	7.030413	30.78180
1075	6.50485	3.1084440	158.1908	157.2615	7.030459	30.78117
1076	6.50434	3.1083272	158.4835	157.5523	7.030588	30.78022
1077	6.50341	3.1081490	158.7516	157.8188	7.030798	30.77897
1078	6.50203	3.1080875	159.0259	158.0914	7.031008	30.77942
1079	6.50064	3.1081430	159.3032	158.3669	7.031159	30.78115
1080	6.49972	3.1082661	159.5714	158.6334	7.031219	30.78321
1081	6.50002	3.1095334	159.8635	158.9237	7.030550	30.79669
1082	6.50346	3.1101364	160.1411	159.1996	7.029823	30.80007
1083	6.50541	3.1099519	160.4307	159.4873	7.029678	30.79616
1084	6.50295	3.1092384	160.7022	159.7571	7.030350	30.79044
1085	6.49735	3.1087341	160.9857	160.0389	7.031308	30.78982
1086	6.49058	3.1083528	161.2629	160.3143	7.032353	30.79161
1087	6.48380	3.1080577	161.5522	160.6018	7.033354	30.79435
1088	6.47826	3.1078918	161.8570	160.9047	7.034137	30.79738
1089	6.47380	3.1077935	162.1523	161.1981	7.034751	30.80019
1090	6.47052	3.1077075	162.4360	161.4801	7.035211	30.80207
1091	6.46811	3.1076154	162.7287	161.7710	7.035565	30.80310
1092	6.46621	3.1075171	163.0118	162.0523	7.035858	30.80360
1093	6.46431	3.1073819	163.3014	162.3401	7.036169	30.80370
1094	6.46231	3.1072343	163.5848	162.6217	7.036500	30.80375
1095	6.46057	3.1071483	163.8741	162.9092	7.036767	30.80425
1096	6.45893	3.1071177	164.1609	163.1942	7.036994	30.80526
1097	6.45754	3.1070501	164.4440	163.4755	7.037207	30.80564
1098	6.45631	3.1070564	164.7335	163.7632	7.037364	30.80668
1099	6.45549	3.1070257	165.0139	164.0418	7.037488	30.80696
1100	6.45487	3.1069274	165.3035	164.3295	7.037621	30.80630
1101	6.45421	3.1068537	165.5990	164.6233	7.037748	30.80596
1102	6.45293	3.1067062	165.8887	164.9111	7.037988	30.80536
1103	6.45118	3.1065833	166.1809	165.2015	7.038275	30.80545
1104	6.44939	3.1064358	166.4768	165.4955	7.038580	30.80532
1105	6.44657	3.1061161	166.7568	165.7737	7.039100	30.80422
1106	6.44277	3.1056489	167.0524	166.0675	7.039816	30.80238
1107	6.43755	3.1051387	167.3543	166.3675	7.040734	30.80136
1108	6.43211	3.1049359	167.6801	166.6913	7.041524	30.80388
1109	6.42801	3.1047824	167.9882	166.9974	7.042122	30.80575
1110	6.42309	3.1042291	168.2927	167.3000	7.043024	30.80397
1111	6.41695	3.1041063	168.5883	167.5937	7.043863	30.80803
1112	6.41218	3.1039097	168.8717	167.8753	7.044565	30.81004
1113	6.40814	3.1035164	169.1704	168.1721	7.045277	30.80923
1114	6.40342	3.1033137	169.4690	168.4688	7.045977	30.81112
1115	6.39794	3.1028528	169.7645	168.7625	7.046903	30.81086
1116	6.39206	3.1026931	170.0570	169.0531	7.047729	30.81429
1117	6.38745	3.1025764	170.3587	169.3529	7.048372	30.81703
1118	6.38407	3.1024475	170.6635	169.6558	7.048868	30.81852
1119	6.38100	3.1020173	170.9619	169.9523	7.049477	30.81643
1120	6.37532	3.1012246	171.2608	170.2493	7.050597	30.81270
1121	6.36836	3.1009544	171.5684	170.5550	7.051615	30.81587
1122	6.36237	3.1008685	171.8703	170.8550	7.052416	30.82020
1123	6.35777	3.1006658	172.1537	171.1366	7.053103	30.82199
1124	6.35311	3.1000207	172.4677	171.4486	7.054021	30.81896
1125	6.34513	3.0991913	172.7628	171.7419	7.055450	30.81691
1126	6.33664	3.0990133	173.0616	172.0387	7.056614	30.82248
1127	6.32948	3.0985035	173.3574	172.3327	7.057779	30.82320
1128	6.32064	3.0975760	173.6588	172.6322	7.059368	30.82084
1129	6.31144	3.0973551	173.9573	172.9288	7.060644	30.82658
1130	6.30368	3.0971894	174.2531	173.2227	7.061713	30.83164
1131	6.29811	3.0971649	174.5546	173.5223	7.062432	30.83627
1132	6.29468	3.0971036	174.8564	173.8222	7.062901	30.83855
1133	6.29218	3.0968396	175.1671	174.1309	7.063357	30.83777
1134	6.28983	3.0967230	175.4629	174.4248	7.063718	30.83847
1135	6.28799	3.0966249	175.7765	174.7365	7.064006	30.83891
1136	6.28621	3.0965451	176.1179	175.0757	7.064279	30.83949
1137	6.28513	3.0964285	176.4684	175.4239	7.064481	30.83902
1138	6.28411	3.0962505	176.8428	175.7960	7.064708	30.83781
1139	6.28273	3.0961769	177.1783	176.1294	7.064926	30.83809
1140	6.28105	3.0962508	177.4859	176.4350	7.065107	30.84029
1141	6.27992	3.0962816	177.7877	176.7349	7.065240	30.84151
1142	6.27962	3.0962817	178.0863	177.0316	7.065284	30.84165
1143	6.27957	3.0962080	178.3970	177.3404	7.065335	30.84074
1144	6.27957	3.0961344	178.7383	177.6794	7.065379	30.83977
1145	6.27926	3.0960486	179.0767	178.0157	7.065469	30.83895
1146	6.27814	3.0958951	179.3843	178.3214	7.065695	30.83813
1147	6.27594	3.0953977	179.6983	178.6333	7.066231	30.83449
1148	6.27027	3.0946057	179.9937	178.9268	7.067354	30.83076
1149	6.26308	3.0943479	180.3138	179.2449	7.068400	30.83428
1150	6.25710	3.0942867	180.6212	179.5504	7.069190	30.83886
1151	6.25287	3.0940473	180.9231	179.8504	7.069853	30.83992
1152	6.24853	3.0937282	181.2248	180.1501	7.070569	30.84019
1153	6.24343	3.0933415	181.5235	180.4469	7.071416	30.84040
1154	6.23823	3.0929916	181.8341	180.7555	7.072257	30.84111
1155	6.23348	3.0928260	182.1450	181.0645	7.072947	30.84344
1156	6.22940	3.0926665	182.4498	181.3673	7.073550	30.84523
1157	6.22634	3.0925807	182.7453	181.6610	7.073986	30.84692
1158	6.22394	3.0924948	183.0469	181.9606	7.074339	30.84801
1159	6.22206	3.0923783	183.3546	182.2664	7.074643	30.84829
1160	6.21961	3.0919303	183.6593	182.5692	7.075187	30.84542
1161	6.21451	3.0910526	183.9643	182.8722	7.076285	30.84021
1162	6.20702	3.0905003	184.2748	183.1807	7.077520	30.84076
1163	6.19886	3.0899481	184.5671	183.4712	7.078839	30.84191
1164	6.19076	3.0894450	184.8750	183.7771	7.080127	30.84356
1165	6.18347	3.0890893	185.1829	184.0830	7.081237	30.84609
1166	6.17655	3.0885862	185.4967	184.3948	7.082377	30.84666
1167	6.16870	3.0880341	185.8076	184.7037	7.083658	30.84753
1168	6.16127	3.0876293	186.1122	185.0063	7.084813	30.84965
1169	6.15475	3.0872736	186.4168	185.3090	7.085827	30.85149
1170	6.14788	3.0868075	186.7307	185.6209	7.086942	30.85242
1171	6.13989	3.0858629	187.0353	185.9236	7.088445	30.84909
1172	6.12920	3.0849614	187.3401	186.2264	7.090267	30.84867
1173	6.11699	3.0839681	187.6480	186.5324	7.092331	30.84861
1174	6.10418	3.0832385	187.9434	186.8259	7.094337	30.85203
1175	6.09263	3.0828524	188.2603	187.1407	7.096007	30.85808
1176	6.08308	3.0824969	188.5740	187.4525	7.097410	30.86268
1177	6.07515	3.0821230	188.8849	187.7613	7.098615	30.86559
1178	6.06824	3.0819454	189.1927	188.0671	7.099591	30.86976
1179	6.06275	3.0818168	189.4885	188.3611	7.100360	30.87318
1180	6.05894	3.0816268	189.7989	188.6695	7.100949	30.87440
1181	6.05351	3.0804805	190.1250	188.9935	7.102236	30.86648
1182	6.04366	3.0793774	190.4816	189.3478	7.104064	30.86304
1183	6.03183	3.0787892	190.8077	189.6718	7.105879	30.86712
1184	6.02102	3.0787036	191.1306	189.9926	7.107305	30.87585
1185	6.01351	3.0786179	191.4415	190.3015	7.108312	30.88159
1186	6.00803	3.0784403	191.7459	190.6040	7.109108	30.88446
1187	6.00447	3.0784282	192.0535	190.9096	7.109573	30.88741
1188	6.00097	3.0776255	192.3613	191.2154	7.110439	30.88155
1189	5.99504	3.0773193	192.6694	191.5216	7.111360	30.88341
1190	5.98885	3.0767802	192.9772	191.8274	7.112433	30.88291
1191	5.98246	3.0763698	193.2910	192.1392	7.113466	30.88402
1192	5.97648	3.0760513	193.5987	192.4449	7.114399	30.88579
1193	5.97070	3.0754940	193.9094	192.7536	7.115431	30.88472
1194	5.96350	3.0751633	194.2202	193.0624	7.116526	30.88745
1195	5.95773	3.0750287	194.5279	193.3682	7.117339	30.89107
1196	5.95332	3.0750717	194.8357	193.6739	7.117886	30.89543
1197	5.95058	3.0750289	195.1404	193.9767	7.118264	30.89730
1198	5.94962	3.0750290	195.4482	194.2825	7.118393	30.89804
1199	5.94896	3.0747596	195.7620	194.5943	7.118623	30.89550
1200	5.94709	3.0745330	196.0697	194.9000	7.118986	30.89455
1201	5.94491	3.0745148	196.3774	195.2057	7.119281	30.89618
1202	5.94344	3.0745026	196.6880	195.5143	7.119481	30.89724
1203	5.94268	3.0743863	196.9931	195.8175	7.119645	30.89650
1204	5.94096	3.0741475	197.2912	196.1136	7.119995	30.89528
1205	5.93878	3.0740068	197.6053	196.4257	7.120352	30.89555
1206	5.93584	3.0735597	197.9069	196.7253	7.120965	30.89312
1207	5.93073	3.0729290	198.2086	197.0251	7.121951	30.89063
1208	5.92323	3.0717350	198.5164	197.3310	7.123534	30.88404
1209	5.91063	3.0701799	198.8271	197.6397	7.125958	30.87808
1210	5.89423	3.0688517	199.1288	197.9394	7.128751	30.87810
1211	5.87577	3.0680562	199.4363	198.2449	7.131533	30.88594
1212	5.86039	3.0675974	199.7381	198.5448	7.133746	30.89471
1213	5.84902	3.0674140	200.0490	198.8537	7.135305	30.90290
1214	5.84083	3.0672795	200.3445	199.1472	7.136430	30.90873
1215	5.83492	3.0671083	200.6522	199.4530	7.137284	30.91208
1216	5.82987	3.0667718	200.9539	199.7527	7.138113	30.91280
1217	5.82517	3.0664109	201.2709	200.0677	7.138910	30.91292
1218	5.81916	3.0655727	201.5845	200.3792	7.140125	30.90892
1219	5.80982	3.0646061	201.8952	200.6880	7.141834	30.90653
1220	5.79866	3.0639150	202.2030	200.9937	7.143633	30.90887
1221	5.78786	3.0634747	202.5017	201.2905	7.145256	30.91369
1222	5.77776	3.0630650	202.8004	201.5872	7.146772	30.91820
1223	5.76843	3.0622027	203.1018	201.8867	7.148429	30.91697
1224	5.75834	3.0612060	203.4035	202.1865	7.150253	30.91492
1225	5.74609	3.0603317	203.7052	202.4862	7.152293	30.91622
1226	5.73227	3.0592374	204.0066	202.7857	7.154649	30.91648
1227	5.71766	3.0586507	204.2992	203.0764	7.156844	30.92316
1228	5.70491	3.0580945	204.6100	203.3852	7.158784	30.92846
1229	5.69363	3.0576974	204.9239	203.6971	7.160452	30.93421
1230	5.68572	3.0574530	205.2256	203.9968	7.161606	30.93857
1231	5.67943	3.0571781	205.5333	204.3025	7.162568	30.94112
1232	5.67354	3.0567504	205.8316	204.5988	7.163559	30.94159
1233	5.66745	3.0563960	206.1335	204.8988	7.164537	30.94306
1234	5.66186	3.0560172	206.4379	205.2012	7.165463	30.94380
1235	5.65643	3.0559012	206.7428	205.5042	7.166232	30.94734
1236	5.65190	3.0557425	207.0443	205.8037	7.166906	30.94957
1237	5.64773	3.0552353	207.3524	206.1098	7.167719	30.94758
1238	5.64275	3.0548871	207.6538	206.4092	7.168551	30.94810
1239	5.63842	3.0547467	207.9525	206.7060	7.169190	30.95036
1240	5.63475	3.0545696	208.2632	207.0147	7.169764	30.95159
1241	5.63173	3.0542764	208.5588	207.3084	7.170315	30.95094
1242	5.62716	3.0537633	208.8666	207.6141	7.171183	30.94924
1243	5.62127	3.0531464	209.1560	207.9017	7.172274	30.94759
1244	5.61409	3.0526944	209.4638	208.2074	7.173448	30.94897
1245	5.60670	3.0524746	209.7530	208.4948	7.174525	30.95315
1246	5.60026	3.0522304	210.0484	208.7883	7.175492	30.95618
1247	5.59544	3.0519557	210.3410	209.0790	7.176267	30.95739
1248	5.59162	3.0517053	210.6272	209.3633	7.176899	30.95795
1249	5.58801	3.0514672	210.9259	209.6601	7.177499	30.95846
1250	5.58474	3.0513329	211.2187	209.9510	7.177999	30.95982
1251	5.58158	3.0512842	211.5082	210.2386	7.178440	30.96204
1252	5.57916	3.0509850	211.8156	210.5440	7.178917	30.96075
1253	5.57726	3.0507530	212.1205	210.8469	7.179293	30.95976
1254	5.57459	3.0500935	212.4525	211.1767	7.179993	30.95465
1255	5.57002	3.0497455	212.7663	211.4885	7.180776	30.95479
1256	5.56480	3.0488724	213.0681	211.7883	7.181920	30.94964
1257	5.55928	3.0482131	213.3636	212.0819	7.182991	30.94717
1258	5.55386	3.0485674	213.6561	212.3725	7.183512	30.95599
1259	5.54929	3.0485858	213.9424	212.6569	7.184100	30.96026
1260	5.54618	3.0485371	214.2411	212.9536	7.184535	30.96244
1261	5.54347	3.0484700	214.5426	213.2532	7.184929	30.96403
1262	5.54151	3.0484152	214.8381	213.5467	7.185218	30.96508
1263	5.54036	3.0483542	215.1308	213.8375	7.185406	30.96532
1264	5.53961	3.0482933	215.4324	214.1372	7.185542	30.96518
1265	5.53951	3.0482689	215.7217	214.4246	7.185575	30.96486
1266	5.53931	3.0482629	216.0235	214.7244	7.185611	30.96484
1267	5.53835	3.0482142	216.3253	215.0243	7.185767	30.96503
1268	5.53720	3.0481410	216.6204	215.3175	7.185961	30.96513
1269	5.53650	3.0481289	216.9161	215.6112	7.186065	30.96550
1270	5.53645	3.0481289	217.2027	215.8959	7.186078	30.96541
1271	5.53660	3.0481107	217.5012	216.1924	7.186075	30.96493
1272	5.53670	3.0480986	217.7994	216.4888	7.186075	30.96456
1273	5.53655	3.0479888	218.1014	216.7887	7.186159	30.96333
1274	5.53594	3.0478362	218.4180	217.1033	7.186325	30.96202
1275	5.53489	3.0478424	218.7169	217.4003	7.186465	30.96292
1276	5.53389	3.0478120	219.0122	217.6935	7.186617	30.96336
1277	5.53308	3.0478121	219.3050	217.9844	7.186728	30.96396
1278	5.53293	3.0477511	219.6003	218.2778	7.186786	30.96327
1279	5.53243	3.0477207	219.8928	218.5684	7.186874	30.96326
1280	5.53153	3.0476048	220.1854	218.8591	7.187059	30.96265
1281	5.53063	3.0475682	220.4778	219.1496	7.187202	30.96293
1282	5.52972	3.0475500	220.7579	219.4278	7.187335	30.96342
1283	5.52907	3.0475074	221.0446	219.7127	7.187448	30.96341
1284	5.52867	3.0474891	221.3369	220.0030	7.187516	30.96344
1285	5.52817	3.0474343	221.6233	220.2875	7.187617	30.96315
1286	5.52762	3.0474160	221.9128	220.5752	7.187704	30.96332
1287	5.52716	3.0473185	222.2084	220.8688	7.187821	30.96250
1288	5.52686	3.0472331	222.5006	221.1592	7.187912	30.96168
1289	5.52641	3.0471477	222.7963	221.4529	7.188022	30.96099
1290	5.52551	3.0469891	223.1133	221.7677	7.188230	30.95989
1291	5.52380	3.0467999	223.4178	222.0703	7.188558	30.95919
1292	5.52185	3.0468672	223.7130	222.3636	7.188783	30.96161
1293	5.51999	3.0467696	223.9967	222.6454	7.189081	30.96209
1294	5.51939	3.0467758	224.2862	222.9329	7.189162	30.96257
1295	5.51894	3.0467453	224.5723	223.2172	7.189243	30.96251
1296	5.51854	3.0468004	224.8621	223.5051	7.189273	30.96336
1297	5.51829	3.0468066	225.1638	223.8048	7.189309	30.96352
1298	5.51849	3.0468006	225.4438	224.0830	7.189292	30.96314
1299	5.51783	3.0467152	225.7363	224.3736	7.189428	30.96264
1300	5.51623	3.0465382	226.0229	224.6583	7.189737	30.96200
1301	5.51407	3.0464712	226.2848	224.9185	7.190058	30.96310
1302	5.51147	3.0474053	226.4555	225.0880	7.189904	30.97592
1303	5.51006	3.0487364	226.5223	225.1544	7.189382	30.99214
1304	5.51172	3.0488158	226.4984	225.1306	7.189125	30.99152
1305	5.51864	3.0491088	226.4558	225.0883	7.188071	30.98847
1306	5.52496	3.0490843	226.4284	225.0611	7.187264	30.98240
1307	5.52927	3.0488217	226.4501	225.0826	7.186845	30.97547
1308	5.53088	3.0488461	226.4898	225.1220	7.186625	30.97425
1309	5.52877	3.0491393	226.5173	225.1494	7.186743	30.97947
1310	5.52711	3.0501531	226.5356	225.1675	7.186421	30.99237
1311	5.52676	3.0506172	226.5265	225.1586	7.186220	30.99791
1312	5.52511	3.0507883	226.5236	225.1556	7.186344	31.00136
1313	5.52390	3.0499516	226.5329	225.1649	7.186943	30.99306
1314	5.52255	3.0493164	226.5603	225.1922	7.187456	30.98716
1315	5.52019	3.0504646	226.5574	225.1893	7.187153	31.00223
1316	5.52004	3.0502936	226.4692	225.1016	7.187261	31.00049
1317	5.52802	3.0502385	226.2715	224.9053	7.186253	30.99262
1318	5.53941	3.0505559	226.0308	224.6661	7.184604	30.98583
1319	5.54648	3.0502687	225.7906	224.4274	7.183834	30.97621
1320	5.54979	3.0500915	225.5802	224.2185	7.183494	30.97127
1321	5.54769	3.0495113	225.3796	224.0192	7.184070	30.96679
1322	5.54171	3.0491510	225.1938	223.8346	7.185030	30.96832
1323	5.53650	3.0491693	224.9960	223.6381	7.185692	30.97341
1324	5.53288	3.0491998	224.7829	223.4264	7.186140	30.97717
1325	5.52942	3.0484731	224.5666	223.2116	7.186968	30.97229
1326	5.52576	3.0479296	224.3599	223.0062	7.187727	30.96965
1327	5.52255	3.0477220	224.1528	222.8005	7.188248	30.97036
1328	5.52059	3.0476609	223.9457	222.5948	7.188530	30.97157
1329	5.51934	3.0476365	223.7419	222.3922	7.188701	30.97255
1330	5.51844	3.0476975	223.5259	222.1776	7.188781	30.97416
1331	5.51753	3.0477829	223.2943	221.9476	7.188847	30.97606
1332	5.51668	3.0473860	223.0630	221.7178	7.189163	30.97249
1333	5.51633	3.0473493	222.8377	221.4940	7.189223	30.97251
1334	5.51683	3.0474041	222.6154	221.2732	7.189124	30.97277
1335	5.51778	3.0474896	222.3961	221.0553	7.188951	30.97295
1336	5.51849	3.0475688	222.1711	220.8317	7.188812	30.97330
1337	5.51869	3.0475810	221.9397	220.6019	7.188775	30.97336
1338	5.51909	3.0475199	221.7170	220.3807	7.188750	30.97241
1339	5.51959	3.0476053	221.4891	220.1543	7.188635	30.97302
1340	5.52019	3.0475686	221.2668	219.9334	7.188572	30.97216
1341	5.52074	3.0475807	221.0386	219.7067	7.188489	30.97189
1342	5.52140	3.0475806	220.8164	219.4859	7.188399	30.97140
1343	5.52245	3.0476599	220.5939	219.2649	7.188216	30.97142
1344	5.52350	3.0477514	220.3629	219.0354	7.188025	30.97159
1345	5.52405	3.0476964	220.1254	218.7995	7.187978	30.97058
1346	5.52446	3.0475987	219.8877	218.5634	7.187972	30.96922
1347	5.52496	3.0475497	219.6502	218.3274	7.187928	30.96832
1348	5.52581	3.0476351	219.4157	218.0945	7.187767	30.96861
1349	5.52651	3.0475984	219.1844	217.8646	7.187690	30.96766
1350	5.52721	3.0476045	218.9501	217.6318	7.187591	30.96719
1351	5.52807	3.0476044	218.7097	217.3930	7.187475	30.96652
1352	5.52887	3.0476593	218.4810	217.1659	7.187337	30.96650
1353	5.52952	3.0477202	218.2407	216.9272	7.187215	30.96670
1354	5.53012	3.0477812	218.0062	216.6942	7.187099	30.96694
1355	5.53042	3.0478117	217.7688	216.4584	7.187039	30.96712
1356	5.53068	3.0477811	217.5254	216.2165	7.187017	30.96666
1357	5.53093	3.0477505	217.2972	215.9898	7.186996	30.96619
1358	5.53118	3.0477809	217.0505	215.7447	7.186942	30.96642
1359	5.53148	3.0477809	216.8161	215.5118	7.186898	30.96625
1360	5.53218	3.0477502	216.5816	215.2789	7.186818	30.96537
1361	5.53268	3.0477502	216.3411	215.0400	7.186747	30.96502
1362	5.53354	3.0478112	216.1036	214.8039	7.186599	30.96503
1363	5.53439	3.0478966	215.8662	214.5681	7.186438	30.96532
1364	5.53499	3.0479026	215.6257	214.3292	7.186352	30.96494
1365	5.53569	3.0478353	215.3851	214.0902	7.186291	30.96366
1366	5.53619	3.0478658	215.1538	213.8604	7.186205	30.96364
1367	5.53680	3.0479146	214.9011	213.6093	7.186095	30.96376
1368	5.53725	3.0479511	214.6482	213.3581	7.186012	30.96387
1369	5.53775	3.0478961	214.4047	213.1162	7.185971	30.96291
1370	5.53800	3.0478716	214.1673	212.8803	7.185946	30.96251
1371	5.53815	3.0478349	213.9329	212.6474	7.185941	30.96207
1372	5.53835	3.0478715	213.6955	212.4116	7.185890	30.96241
1373	5.53845	3.0478958	213.4457	212.1635	7.185859	30.96271
1374	5.53845	3.0478408	213.1900	211.9094	7.185882	30.96221
1375	5.53835	3.0476637	212.9498	211.6708	7.185984	30.96042
1376	5.53825	3.0476575	212.7059	211.4285	7.185995	30.96056
1377	5.53845	3.0477795	212.4653	211.1894	7.185899	30.96186
1378	5.53880	3.0477794	212.2250	210.9507	7.185848	30.96165
1379	5.53895	3.0476939	211.9722	210.6995	7.185868	30.96067
1380	5.53920	3.0476877	211.7225	210.4515	7.185833	30.96048
1381	5.53986	3.0477487	211.4698	210.2004	7.185711	30.96069
1382	5.54091	3.0477791	211.2233	209.9555	7.185553	30.96017
1383	5.54181	3.0478340	210.9643	209.6982	7.185401	30.96008
1384	5.54247	3.0478339	210.7087	209.4443	7.185311	30.95960
1385	5.54322	3.0478705	210.4529	209.1902	7.185188	30.95944
1386	5.54417	3.0478948	210.2003	208.9392	7.185046	30.95896
1387	5.54538	3.0479558	209.9476	208.6882	7.184852	30.95865
1388	5.54648	3.0479801	209.6886	208.4308	7.184691	30.95803
1389	5.54718	3.0479861	209.4267	208.1706	7.184591	30.95758
1390	5.54784	3.0480105	209.1744	207.9200	7.184488	30.95737
1391	5.54839	3.0480165	208.9125	207.6597	7.184407	30.95705
1392	5.54989	3.0480958	208.6505	207.3995	7.184165	30.95668
1393	5.55180	3.0482606	208.4037	207.1543	7.183825	30.95689
1394	5.55421	3.0484436	208.1450	206.8972	7.183410	30.95686
1395	5.55707	3.0486267	207.8891	206.6430	7.182937	30.95641
1396	5.56018	3.0488159	207.6274	206.3830	7.182428	30.95579
1397	5.56335	3.0490173	207.3596	206.1169	7.181906	30.95527
1398	5.56656	3.0492065	207.0977	205.8568	7.181385	30.95457
1399	5.56972	3.0493346	206.8359	205.5966	7.180902	30.95323
1400	5.57299	3.0495116	206.5739	205.3364	7.180380	30.95234
1401	5.57721	3.0497558	206.3153	205.0794	7.179699	30.95133
1402	5.58163	3.0500305	206.0504	204.8162	7.178976	30.95047
1403	5.58620	3.0503174	205.7822	204.5498	7.178227	30.94962
1404	5.59112	3.0505799	205.5205	204.2897	7.177446	30.94817
1405	5.59589	3.0508241	205.2585	204.0295	7.176694	30.94665
1406	5.60067	3.0510989	204.9847	203.7574	7.175926	30.94548
1407	5.60489	3.0513614	204.7225	203.4970	7.175236	30.94468
1408	5.60906	3.0515873	204.4641	203.2402	7.174572	30.94350
1409	5.61348	3.0518498	204.2022	202.9800	7.173856	30.94251
1410	5.61765	3.0520513	203.9372	202.7167	7.173204	30.94107
1411	5.62183	3.0522589	203.6663	202.4476	7.172550	30.93969
1412	5.62595	3.0523993	203.4014	202.1844	7.171938	30.93761
1413	5.62982	3.0526008	203.1272	201.9120	7.171325	30.93644
1414	5.63374	3.0528572	202.8441	201.6307	7.170677	30.93585
1415	5.63701	3.0530099	202.5700	201.3584	7.170169	30.93470
1416	5.64078	3.0532664	202.3052	201.0953	7.169541	30.93424
1417	5.64526	3.0535412	202.0463	200.8381	7.168812	30.93333
1418	5.64979	3.0537610	201.7724	200.5659	7.168106	30.93177
1419	5.65406	3.0540603	201.5105	200.3057	7.167391	30.93133
1420	5.65854	3.0543413	201.2367	200.0337	7.166659	30.93050
1421	5.66317	3.0545672	200.9745	199.7732	7.165938	30.92891
1422	5.66760	3.0547932	200.7097	199.5101	7.165242	30.92751
1423	5.67258	3.0551170	200.4448	199.2470	7.164423	30.92669
1424	5.67842	3.0554041	200.1828	198.9866	7.163513	30.92468
1425	5.68628	3.0558989	199.9152	198.7207	7.162235	30.92315
1426	5.69428	3.0564733	199.6468	198.4541	7.160896	30.92237
1427	5.70275	3.0569132	199.3729	198.1819	7.159569	30.91967
1428	5.71232	3.0576955	199.1082	197.9189	7.157920	30.91978
1429	5.72401	3.0585573	198.8372	197.6497	7.155957	30.91885
1430	5.73520	3.0591746	198.5723	197.3865	7.154188	30.91563
1431	5.74674	3.0597859	198.2981	197.1141	7.152376	30.91203
1432	5.75753	3.0602382	198.0330	196.8507	7.150746	30.90734
1433	5.76686	3.0607150	197.7715	196.5908	7.149292	30.90426
1434	5.77534	3.0611552	197.5004	196.3215	7.147967	30.90155
1435	5.78513	3.0615525	197.2323	196.0552	7.146495	30.89717
1436	5.79533	3.0621395	196.9612	195.7858	7.144874	30.89453
1437	5.80461	3.0626287	196.6934	195.5197	7.143420	30.89163
1438	5.81386	3.0633319	196.4224	195.2504	7.141861	30.89117
1439	5.82557	3.0642555	196.1547	194.9844	7.139871	30.89089
1440	5.83851	3.0651853	195.8865	194.7180	7.137722	30.88958
1441	5.85129	3.0658460	195.6249	194.4580	7.135734	30.88540
1442	5.86242	3.0662313	195.3567	194.1916	7.134103	30.87967
1443	5.87187	3.0667085	195.0734	193.9101	7.132638	30.87650
1444	5.88108	3.0673938	194.8027	193.6412	7.131098	30.87586
1445	5.88932	3.0678282	194.5346	193.3748	7.129811	30.87331
1446	5.89636	3.0679933	194.2666	193.1085	7.128819	30.86886
1447	5.90263	3.0683237	194.0016	192.8452	7.127840	30.86695
1448	5.90799	3.0689173	193.7214	192.5668	7.126839	30.86879
1449	5.91296	3.0693151	193.4535	192.3007	7.125993	30.86882
1450	5.91731	3.0693456	193.1797	192.0286	7.125415	30.86533
1451	5.92090	3.0696944	192.8994	191.7501	7.124768	30.86606
1452	5.92435	3.0700739	192.6222	191.4747	7.124126	30.86727
1453	5.92764	3.0701778	192.3573	191.2115	7.123646	30.86556
1454	5.93108	3.0702757	192.1015	190.9573	7.123149	30.86363
1455	5.93397	3.0703919	191.8367	190.6942	7.122715	30.86241
1456	5.93660	3.0705081	191.5687	190.4279	7.122312	30.86143
1457	5.93984	3.0709428	191.2916	190.1526	7.121667	30.86344
1458	5.94415	3.0712917	191.0238	189.8865	7.120931	30.86353
1459	5.94952	3.0716712	190.7555	189.6200	7.120043	30.86298
1460	5.95484	3.0719711	190.4786	189.3448	7.119203	30.86160
1461	5.96036	3.0724303	190.1865	189.0546	7.118254	30.86181
1462	5.96594	3.0728650	189.9122	188.7821	7.117312	30.86169
1463	5.97202	3.0733119	189.6411	188.5127	7.116299	30.86125
1464	5.97755	3.0734527	189.3794	188.2526	7.115516	30.85791
1465	5.98267	3.0736547	189.1145	187.9894	7.114753	30.85562
1466	5.98748	3.0739608	188.8461	187.7228	7.113975	30.85476
1467	5.99179	3.0743527	188.5783	187.4567	7.113217	30.85531
1468	5.99636	3.0746650	188.3074	187.1876	7.112468	30.85476
1469	6.00138	3.0750263	188.0334	186.9153	7.111636	30.85433
1470	6.00584	3.0752284	187.7561	186.6397	7.110957	30.85264
1471	6.01021	3.0754672	187.4791	186.3645	7.110272	30.85145
1472	6.01513	3.0758101	187.2204	186.1075	7.109463	30.85090
1473	6.02051	3.0762695	186.9432	185.8320	7.108535	30.85124
1474	6.02574	3.0766554	186.6754	185.5660	7.107665	30.85089
1475	6.03198	3.0772129	186.4193	185.3115	7.106577	30.85152
1476	6.03838	3.0776233	186.1576	185.0514	7.105546	30.85038
1477	6.04635	3.0779112	185.9047	184.8002	7.104379	30.84645
1478	6.05381	3.0783339	185.6493	184.5464	7.103206	30.84447
1479	6.06118	3.0786402	185.3871	184.2859	7.102106	30.84130
1480	6.06880	3.0790813	185.1468	184.0472	7.100906	30.83938
1481	6.07591	3.0794735	184.8879	183.7899	7.099795	30.83739
1482	6.08221	3.0798718	184.6321	183.5358	7.098784	30.83620
1483	6.08984	3.0807053	184.3669	183.2722	7.097382	30.83864
1484	6.09848	3.0812753	184.1114	183.0184	7.095986	30.83722
1485	6.10728	3.0815939	183.8464	182.7550	7.094700	30.83289
1486	6.11450	3.0819065	183.5846	182.4949	7.093618	30.82993
1487	6.12086	3.0822374	183.3287	182.2406	7.092636	30.82794
1488	6.12610	3.0826481	183.0730	181.9865	7.091755	30.82785
1489	6.13180	3.0828994	182.8019	181.7172	7.090898	30.82559
1490	6.13709	3.0833469	182.5277	181.4447	7.089992	30.82587
1491	6.14411	3.0844384	182.2565	181.1753	7.088537	30.83170
1492	6.15277	3.0849903	181.9948	180.9153	7.087152	30.83008
1493	6.16162	3.0853091	181.7332	180.6554	7.085862	30.82570
1494	6.16931	3.0855850	181.4771	180.4008	7.084741	30.82190
1495	6.17558	3.0858057	181.2242	180.1496	7.083830	30.81878
1496	6.18083	3.0858301	180.9443	179.8714	7.083147	30.81443
1497	6.18510	3.0858054	180.6459	179.5750	7.082612	30.81042
1498	6.18974	3.0871242	180.3413	179.2723	7.081345	30.82093
1499	6.19514	3.0877192	180.0550	178.9877	7.080352	30.82274
1500	6.20044	3.0878602	179.7960	178.7305	7.079604	30.81962
1501	6.20641	3.0875656	179.5433	178.4793	7.078995	30.81108
1502	6.21140	3.0873139	179.2877	178.2254	7.078486	30.80390
1503	6.21533	3.0881482	179.0197	177.9591	7.077558	30.80968
1504	6.22048	3.0885531	178.7580	177.6990	7.076696	30.80961
1505	6.22604	3.0892341	178.5141	177.4566	7.075641	30.81221
1506	6.23068	3.0895838	178.2979	177.2418	7.074872	30.81197
1507	6.23476	3.0894303	178.0939	177.0391	7.074430	30.80668
1508	6.23812	3.0890006	177.8867	176.8333	7.074219	30.79899
1509	6.24016	3.0884728	177.6767	176.6246	7.074226	30.79142
1510	6.24195	3.0883377	177.4725	176.4217	7.074065	30.78841
1511	6.24394	3.0888531	177.2656	176.2161	7.073547	30.79239
1512	6.24593	3.0888530	177.0404	175.9923	7.073290	30.79070
1513	6.24700	3.0886750	176.8150	175.7684	7.073241	30.78787
1514	6.24838	3.0892027	176.5807	175.5355	7.072793	30.79255
1515	6.25022	3.0897917	176.3554	175.3117	7.072257	30.79749
1516	6.25200	3.0897610	176.1208	175.0785	7.072042	30.79564
1517	6.25302	3.0897056	175.8619	174.8214	7.071936	30.79423
1518	6.25384	3.0902886	175.5967	174.5578	7.071531	30.80004
1519	6.25486	3.0907857	175.3349	174.2977	7.071143	30.80472
1520	6.25665	3.0910618	175.0825	174.0468	7.070772	30.80626
1521	6.25828	3.0910249	174.8232	173.7892	7.070579	30.80450
1522	6.26001	3.0910248	174.5556	173.5233	7.070355	30.80305
1523	6.26160	3.0914912	174.2876	173.2570	7.069912	30.80688
1524	6.26323	3.0917244	174.0133	172.9844	7.069582	30.80810
1525	6.26476	3.0918716	173.7421	172.7149	7.069308	30.80847
1526	6.26604	3.0920189	173.4649	172.4395	7.069066	30.80906
1527	6.26711	3.0920495	173.1911	172.1674	7.068909	30.80855
1528	6.26864	3.0922827	172.9140	171.8921	7.068592	30.80987
1529	6.27012	3.0924606	172.6458	171.6256	7.068309	30.81061
1530	6.27191	3.0926078	172.3656	171.3472	7.068003	30.81075
1531	6.27446	3.0925218	172.0763	171.0597	7.067718	30.80763
1532	6.27701	3.0930435	171.7902	170.7754	7.067125	30.81120
1533	6.28038	3.0932829	171.5190	170.5059	7.066573	30.81091
1534	6.28426	3.0935161	171.2451	170.2337	7.065960	30.81010
1535	6.28820	3.0937861	170.9647	169.9551	7.065321	30.80965
1536	6.29325	3.0941360	170.6968	169.6889	7.064500	30.80906
1537	6.29943	3.0946025	170.4228	169.4166	7.063479	30.80874
1538	6.30500	3.0949340	170.1365	169.1321	7.062603	30.80749
1539	6.31006	3.0950997	169.8653	168.8626	7.061876	30.80487
1540	6.31533	3.0954865	169.5820	168.5811	7.061011	30.80450
1541	6.32085	3.0958057	169.2959	168.2968	7.060148	30.80316
1542	6.32632	3.0962662	169.0217	168.0244	7.059220	30.80342
1543	6.33189	3.0965425	168.7507	167.7551	7.058374	30.80155
1544	6.33792	3.0969170	168.4765	167.4826	7.057419	30.80035
1545	6.34380	3.0972486	168.1934	167.2013	7.056505	30.79882
1546	6.34968	3.0974266	167.9222	166.9318	7.055670	30.79560
1547	6.35536	3.0978934	167.6452	166.6566	7.054714	30.79573
1548	6.36094	3.0983417	167.3620	166.3751	7.053780	30.79576
1549	6.36616	3.0986610	167.0911	166.1059	7.052957	30.79469
1550	6.37204	3.0989251	166.8168	165.8334	7.052078	30.79241
1551	6.37777	3.0992752	166.5426	165.5609	7.051175	30.79121
1552	6.38294	3.0994225	166.2777	165.2976	7.050446	30.78829
1553	6.38811	3.0997173	166.0036	165.0253	7.049642	30.78699
1554	6.39334	3.1001043	165.7265	164.7499	7.048784	30.78667
1555	6.39820	3.1003070	165.4374	164.4626	7.048065	30.78464
1556	6.40245	3.1006141	165.1569	164.1839	7.047371	30.78431
1557	6.40701	3.1008660	164.8919	163.9205	7.046666	30.78309
1558	6.41126	3.1011608	164.6181	163.6485	7.045978	30.78262
1559	6.41500	3.1013881	164.3408	163.3730	7.045389	30.78187
1560	6.41874	3.1015170	164.0605	163.0944	7.044849	30.78005
1561	6.42207	3.1018058	163.7953	162.8309	7.044280	30.78034
1562	6.42494	3.1019471	163.5215	162.5588	7.043843	30.77943
1563	6.42750	3.1020453	163.2474	162.2864	7.043466	30.77832
1564	6.42986	3.1022234	162.9671	162.0078	7.043075	30.77828
1565	6.43186	3.1024446	162.7022	161.7447	7.042707	30.77903
1566	6.43396	3.1025736	162.4281	161.4723	7.042373	30.77868
1567	6.43575	3.1026350	162.1570	161.2029	7.042112	30.77786
1568	6.43729	3.1026287	161.8709	160.9186	7.041916	30.77654
1569	6.43888	3.1030159	161.5904	160.6398	7.041516	30.77948
1570	6.44062	3.1032863	161.3196	160.3707	7.041156	30.78101
1571	6.44201	3.1032493	161.0452	160.0981	7.040995	30.77948
1572	6.44329	3.1030771	160.7743	159.8288	7.040916	30.77656
1573	6.44452	3.1033167	160.4972	159.5534	7.040635	30.77821
1574	6.44611	3.1034580	160.2229	159.2808	7.040359	30.77845
1575	6.44816	3.1036362	159.9457	159.0054	7.040007	30.77868
1576	6.45088	3.1037529	159.6807	158.7421	7.039602	30.77764
1577	6.45385	3.1041032	159.4099	158.4730	7.039047	30.77893
1578	6.45769	3.1042814	159.1359	158.2006	7.038470	30.77754
1579	6.46200	3.1045272	158.8617	157.9282	7.037801	30.77649
1580	6.46616	3.1046685	158.5814	157.6496	7.037204	30.77442
1581	6.46954	3.1047545	158.3133	157.3832	7.036732	30.77244
1582	6.47303	3.1048404	158.0453	157.1169	7.036246	30.77037
1583	6.47601	3.1047850	157.7864	156.8597	7.035896	30.76720
1584	6.47831	3.1046681	157.5244	156.5993	7.035660	30.76396
1585	6.48006	3.1046372	157.2564	156.3330	7.035452	30.76218
1586	6.48139	3.1046494	157.0007	156.0789	7.035273	30.76123
1587	6.48262	3.1045756	156.7385	155.8183	7.035151	30.75943
1588	6.48324	3.1043972	156.4735	155.5549	7.035158	30.75704
1589	6.48391	3.1044032	156.2208	155.3038	7.035066	30.75662
1590	6.48457	3.1044892	155.9527	155.0374	7.034934	30.75708
1591	6.48524	3.1045752	155.6878	154.7742	7.034802	30.75755
1592	6.48575	3.1045874	155.4261	154.5141	7.034726	30.75734
1593	6.48627	3.1044890	155.1577	154.2474	7.034705	30.75592
1594	6.48704	3.1046057	154.8990	153.9902	7.034545	30.75663
1595	6.48791	3.1046487	154.6339	153.7268	7.034409	30.75643
1596	6.48863	3.1046916	154.3690	153.4635	7.034292	30.75638
1597	6.48971	3.1047530	154.1070	153.2032	7.034121	30.75620
1598	6.49022	3.1046792	153.8450	152.9429	7.034088	30.75505
1599	6.49114	3.1046914	153.5770	152.6765	7.033961	30.75447
1600	6.49176	3.1047651	153.2939	152.3952	7.033841	30.75486
1601	6.49238	3.1049617	153.0167	152.1197	7.033659	30.75658
1602	6.49279	3.1049001	152.7577	151.8623	7.033633	30.75566
1603	6.49320	3.1049554	152.4898	151.5961	7.033549	30.75601
1604	6.49350	3.1049922	152.2373	151.3452	7.033486	30.75626
1605	6.49422	3.1050475	151.9598	151.0694	7.033363	30.75634
1606	6.49474	3.1049552	151.6978	150.8090	7.033340	30.75499
1607	6.49530	3.1048382	151.4266	150.5395	7.033322	30.75332
1608	6.49617	3.1049304	151.1587	150.2733	7.033161	30.75367
1609	6.49730	3.1048996	150.9029	150.0190	7.033030	30.75243
1610	6.49853	3.1048687	150.6349	149.7527	7.032886	30.75111
1611	6.49992	3.1049301	150.3698	149.4893	7.032676	30.75066
1612	6.50161	3.1050468	150.1140	149.2351	7.032400	30.75053
1613	6.50403	3.1051144	149.8428	148.9655	7.032059	30.74922
1614	6.50690	3.1052803	149.5810	148.7054	7.031610	30.74858
1615	6.51019	3.1053970	149.3189	148.4449	7.031135	30.74702
1616	6.51404	3.1057720	149.0633	148.1909	7.030460	30.74778
1617	6.51789	3.1060486	148.8043	147.9335	7.029835	30.74747
1618	6.52195	3.1062576	148.5362	147.6671	7.029217	30.74623
1619	6.52585	3.1064850	148.2805	147.4129	7.028610	30.74533
1620	6.52914	3.1066386	148.0215	147.1556	7.028117	30.74418
1621	6.53243	3.1068169	147.7594	146.8951	7.027611	30.74330
1622	6.53525	3.1069828	147.5037	146.6410	7.027170	30.74269
1623	6.53782	3.1071426	147.2418	146.3807	7.026763	30.74225
1624	6.54018	3.1073147	146.9738	146.1143	7.026376	30.74213
1625	6.54219	3.1074807	146.7207	145.8628	7.026037	30.74227
1626	6.54383	3.1075852	146.4681	145.6118	7.025774	30.74205
1627	6.54563	3.1076712	146.2028	145.3482	7.025501	30.74149
1628	6.54707	3.1077941	145.9409	145.0879	7.025254	30.74166
1629	6.54805	3.1078494	145.6824	144.8310	7.025099	30.74151
1630	6.54897	3.1078800	145.4172	144.5674	7.024963	30.74114
1631	6.55000	3.1078553	145.1580	144.3098	7.024842	30.74006
1632	6.55103	3.1079660	144.8992	144.0527	7.024653	30.74046
1633	6.55206	3.1080274	144.6375	143.7926	7.024488	30.74033
1634	6.55319	3.1081073	144.3816	143.5382	7.024302	30.74031
1635	6.55421	3.1081994	144.1163	143.2746	7.024122	30.74051
1636	6.55509	3.1083777	143.8578	143.0176	7.023918	30.74180
1637	6.55596	3.1084146	143.5986	142.7600	7.023785	30.74153
1638	6.55658	3.1084698	143.3275	142.4907	7.023675	30.74171
1639	6.55756	3.1085866	143.0686	142.2334	7.023489	30.74222
1640	6.55838	3.1086727	142.8066	141.9730	7.023338	30.74255
1641	6.55941	3.1086972	142.5539	141.7219	7.023192	30.74201
1642	6.56059	3.1087648	142.2858	141.4554	7.023005	30.74181
1643	6.56162	3.1089369	142.0238	141.1950	7.022785	30.74288
1644	6.56259	3.1090107	141.7710	140.9438	7.022621	30.74293
1645	6.56357	3.1089121	141.4999	140.6743	7.022543	30.74110
1646	6.56465	3.1089982	141.2167	140.3929	7.022359	30.74120
1647	6.56588	3.1094656	140.9394	140.1173	7.021966	30.74533
1648	6.56712	3.1094101	140.6653	139.8449	7.021834	30.74374
1649	6.56779	3.1092624	140.4156	139.5967	7.021819	30.74164
1650	6.56881	3.1093792	140.1503	139.3331	7.021627	30.74211
1651	6.57005	3.1094099	139.8914	139.0757	7.021452	30.74146
1652	6.57103	3.1094713	139.6296	138.8156	7.021294	30.74137
1653	6.57195	3.1082594	139.3706	138.5582	7.021779	30.72740
1654	6.57298	3.1088191	139.1087	138.2979	7.021366	30.73272
1655	6.57380	3.1088497	138.8496	138.0404	7.021242	30.73243
1656	6.57457	3.1099139	138.5850	137.7774	7.020609	30.74350
1657	6.57555	3.1099692	138.3288	137.5228	7.020454	30.74334
1658	6.57643	3.1100307	138.0670	137.2626	7.020309	30.74335
1659	6.57756	3.1100613	137.8081	137.0053	7.020147	30.74279
1660	6.57869	3.1101597	137.5368	136.7356	7.019951	30.74297
1661	6.57982	3.1101781	137.2871	136.4875	7.019795	30.74227
1662	6.58064	3.1102641	137.0188	136.2208	7.019644	30.74259
1663	6.58172	3.1103809	136.7542	135.9579	7.019446	30.74302
1664	6.58311	3.1104116	136.4920	135.6973	7.019252	30.74223
1665	6.58424	3.1104730	136.2362	135.4431	7.019075	30.74200
1666	6.58543	3.1106268	135.9713	135.1798	7.018845	30.74274
1667	6.58707	3.1107682	135.7090	134.9192	7.018563	30.74293
1668	6.58892	3.1108850	135.4624	134.6741	7.018269	30.74265
1669	6.59103	3.1110326	135.1976	134.4108	7.017927	30.74249
1670	6.59340	3.1112725	134.9322	134.1471	7.017507	30.74311
1671	6.59571	3.1113893	134.6706	133.8870	7.017154	30.74243
1672	6.59782	3.1115307	134.4085	133.6266	7.016815	30.74220
1673	6.59988	3.1116537	134.1464	133.3661	7.016492	30.74182
1674	6.60215	3.1118013	133.8875	133.1088	7.016131	30.74152
1675	6.60415	3.1118750	133.6226	132.8455	7.015838	30.74064
1676	6.60595	3.1120411	133.3608	132.5853	7.015526	30.74096
1677	6.60796	3.1120964	133.1048	132.3309	7.015243	30.73988
1678	6.60987	3.1120963	132.8520	132.0796	7.015000	30.73828
1679	6.61172	3.1122500	132.5992	131.8284	7.014688	30.73842
1680	6.61301	3.1123053	132.3278	131.5587	7.014494	30.73799
1681	6.61455	3.1123360	132.0720	131.3044	7.014281	30.73705
1682	6.61615	3.1125636	131.7980	131.0321	7.013963	30.73823
1683	6.61759	3.1126866	131.5388	130.7745	7.013717	30.73840
1684	6.61893	3.1126311	131.2616	130.4990	7.013572	30.73672
1685	6.62078	3.1126556	130.9753	130.2144	7.013323	30.73546
1686	6.62294	3.1131048	130.7165	129.9572	7.012825	30.73854
1687	6.62526	3.1130739	130.4605	129.7028	7.012546	30.73624
1688	6.62763	3.1129631	130.1953	129.4392	7.012301	30.73303
1689	6.62994	3.1132522	129.9335	129.1790	7.011863	30.73423
1690	6.63283	3.1134860	129.6713	128.9184	7.011382	30.73431
1691	6.63762	3.1137752	129.4093	128.6581	7.010637	30.73329
1692	6.64328	3.1140213	129.1475	128.3978	7.009804	30.73102
1693	6.64782	3.1143782	128.8674	128.1194	7.009056	30.73098
1694	6.65245	3.1146674	128.6022	127.8559	7.008330	30.73010
1695	6.65750	3.1148088	128.3372	127.5925	7.007626	30.72724
1696	6.66178	3.1148764	128.0782	127.3351	7.007056	30.72426
1697	6.66549	3.1150548	127.8194	127.0779	7.006500	30.72300
1698	6.66853	3.1152148	127.5664	126.8264	7.006037	30.72214
1699	6.67106	3.1152639	127.2953	126.5570	7.005693	30.72053
1700	6.67374	3.1153500	127.0365	126.2997	7.005312	30.71919
1701	6.67606	3.1154977	126.7716	126.0364	7.004945	30.71884
1702	6.67776	3.1155284	126.5092	125.7757	7.004713	30.71777
1703	6.67987	3.1156822	126.2443	125.5124	7.004368	30.71768
1704	6.68245	3.1158237	125.9732	125.2429	7.003972	30.71703
1705	6.68492	3.1159098	125.7171	124.9884	7.003616	30.71587
1706	6.68724	3.1160574	125.4492	124.7221	7.003249	30.71553
1707	6.68972	3.1162420	125.1902	124.4647	7.002845	30.71544
1708	6.69235	3.1164451	124.9222	124.1984	7.002412	30.71542
1709	6.69493	3.1165620	124.6693	123.9470	7.002028	30.71450
1710	6.69771	3.1166789	124.4073	123.6866	7.001619	30.71340
1711	6.70003	3.1167712	124.1393	123.4202	7.001279	30.71245
1712	6.70210	3.1168080	123.8776	123.1601	7.000999	30.71112
1713	6.70406	3.1168572	123.6152	122.8993	7.000726	30.71002
1714	6.70571	3.1170664	123.3564	122.6420	7.000412	30.71095
1715	6.70767	3.1173065	123.0912	122.3785	7.000044	30.71193
1716	6.71051	3.1174788	122.8292	122.1181	6.999601	30.71138
1717	6.71396	3.1177189	122.5673	121.8578	6.999047	30.71103
1718	6.71804	3.1179281	122.3052	121.5972	6.998432	30.70978
1719	6.72268	3.1182482	122.0404	121.3340	6.997692	30.70923
1720	6.72692	3.1184637	121.7721	121.0674	6.997054	30.70791
1721	6.73125	3.1188146	121.5072	120.8041	6.996337	30.70797
1722	6.73564	3.1191717	121.2420	120.5406	6.995610	30.70806
1723	6.74060	3.1192270	120.9709	120.2711	6.994963	30.70435
1724	6.74473	3.1197012	120.6906	119.9925	6.994210	30.70595
1725	6.74876	3.1199721	120.4317	119.7352	6.993571	30.70541
1726	6.75258	3.1198241	120.1636	119.4687	6.993165	30.70051
1727	6.75562	3.1198056	119.9109	119.2175	6.992792	30.69769
1728	6.75810	3.1200888	119.6517	118.9599	6.992339	30.69868
1729	6.76131	3.1202674	119.4111	118.7208	6.991849	30.69787
1730	6.76492	3.1202672	119.1734	118.4845	6.991396	30.69474
1731	6.76802	3.1200885	118.9357	118.2483	6.991096	30.69013
1732	6.77076	3.1201746	118.6919	118.0059	6.990709	30.68873
1733	6.77355	3.1202977	118.4513	117.7668	6.990297	30.68769
1734	6.77665	3.1203223	118.2107	117.5276	6.989896	30.68529
1735	6.77892	3.1203099	117.9733	117.2917	6.989616	30.68324
1736	6.78084	3.1202975	117.7356	117.0555	6.989380	30.68150
1737	6.78213	3.1202666	117.4887	116.8100	6.989230	30.68012
1738	6.78347	3.1203096	117.2542	116.5769	6.989038	30.67950
1739	6.78476	3.1202972	117.0135	116.3377	6.988879	30.67832
1740	6.78570	3.1202478	116.7606	116.0863	6.988783	30.67706
1741	6.78663	3.1202970	116.5109	115.8381	6.988639	30.67688
1742	6.78725	3.1203216	116.2701	115.5988	6.988545	30.67670
1743	6.78792	3.1202784	116.0324	115.3626	6.988478	30.67574
1744	6.78843	3.1203214	115.7886	115.1202	6.988388	30.67585
1745	6.78895	3.1202967	115.5450	114.8781	6.988331	30.67523
1746	6.78921	3.1203213	115.3072	114.6417	6.988282	30.67538
1747	6.78926	3.1202350	115.0727	114.4086	6.988313	30.67450
1748	6.78942	3.1201795	114.8320	114.1694	6.988317	30.67386
1749	6.78947	3.1202040	114.5977	113.9365	6.988293	30.67419
1750	6.78968	3.1202348	114.3507	113.6910	6.988247	30.67445
1751	6.78968	3.1201731	114.1103	113.4520	6.988273	30.67389
1752	6.78988	3.1202038	113.8663	113.2095	6.988227	30.67415
1753	6.78983	3.1202653	113.6257	112.9704	6.988198	30.67497
1754	6.78973	3.1201790	113.3821	112.7283	6.988249	30.67424
1755	6.78968	3.1200558	113.1321	112.4798	6.988311	30.67305
1756	6.78937	3.1200249	112.8791	112.2283	6.988359	30.67311
1757	6.78911	3.1199940	112.6141	111.9649	6.988401	30.67312
1758	6.78931	3.1199077	112.3675	111.7198	6.988413	30.67211
1759	6.78942	3.1198214	112.1114	111.4653	6.988438	30.67120
1760	6.78983	3.1197597	111.8586	111.2140	6.988412	30.67027
1761	6.79050	3.1197719	111.5967	110.9536	6.988317	30.66992
1762	6.79164	3.1197287	111.3439	110.7024	6.988193	30.66855
1763	6.79252	3.1197286	111.0938	110.4538	6.988079	30.66788
1764	6.79376	3.1196423	110.8226	110.1842	6.987962	30.66595
1765	6.79464	3.1197285	110.5576	109.9208	6.987805	30.66623
1766	6.79593	3.1198762	110.2955	109.6603	6.987567	30.66680
1767	6.79743	3.1197714	110.0428	109.4091	6.987428	30.66443
1768	6.79867	3.1198206	109.7928	109.1606	6.987245	30.66397
1769	6.79996	3.1198759	109.5309	108.9003	6.987052	30.66354
1770	6.80141	3.1199005	109.2871	108.6580	6.986856	30.66263
1771	6.80343	3.1199065	109.0283	108.4007	6.986598	30.66101
1772	6.80565	3.1200235	108.7876	108.1614	6.986260	30.66040
1773	6.80751	3.1200850	108.5255	107.9009	6.985994	30.65953
1774	6.80953	3.1201403	108.2603	107.6373	6.985712	30.65845
1775	6.81160	3.1202942	108.0107	107.3892	6.985375	30.65839
1776	6.81367	3.1203989	107.7517	107.1318	6.985062	30.65780
1777	6.81527	3.1203926	107.4987	106.8803	6.984861	30.65642
1778	6.81672	3.1204603	107.2397	106.6228	6.984643	30.65598
1779	6.81796	3.1204664	106.9839	106.3686	6.984482	30.65505
1780	6.81915	3.1204971	106.7188	106.1051	6.984314	30.65444
1781	6.82024	3.1205278	106.4689	105.8567	6.984159	30.65392
1782	6.82086	3.1205585	106.2192	105.6085	6.984062	30.65381
1783	6.82137	3.1204907	105.9600	105.3509	6.984026	30.65273
1784	6.82148	3.1204413	105.7104	105.1028	6.984033	30.65221
1785	6.82179	3.1204659	105.4514	104.8453	6.983977	30.65232
1786	6.82215	3.1204535	105.1864	104.5819	6.983933	30.65198
1787	6.82272	3.1205273	104.9121	104.3092	6.983820	30.65240
1788	6.82344	3.1205827	104.6500	104.0487	6.983698	30.65248
1789	6.82474	3.1206750	104.4003	103.8005	6.983487	30.65244
1790	6.82670	3.1207365	104.1474	103.5491	6.983209	30.65147
1791	6.82872	3.1209582	103.8882	103.2915	6.982845	30.65219
1792	6.83115	3.1211490	103.6356	103.0404	6.982445	30.65221
1793	6.83343	3.1212414	103.3886	102.7948	6.982112	30.65130
1794	6.83540	3.1213891	103.1297	102.5375	6.981791	30.65127
1795	6.83726	3.1214198	102.8676	102.2770	6.981540	30.65006
1796	6.83840	3.1214321	102.6119	102.0228	6.981388	30.64929
1797	6.83923	3.1214443	102.3559	101.7684	6.981275	30.64880
1798	6.83990	3.1213888	102.0998	101.5137	6.981214	30.64771
1799	6.84005	3.1213579	101.8437	101.2592	6.981204	30.64735
1800	6.84011	3.1212654	101.5909	101.0079	6.981238	30.64642
1801	6.84016	3.1211791	101.3259	100.7446	6.981269	30.64555
1802	6.83990	3.1211482	101.0730	100.4931	6.981311	30.64556
1803	6.83985	3.1210927	100.8203	100.2419	6.981340	30.64512
1804	6.83969	3.1210556	100.5549	99.9781	6.981372	30.64497
1805	6.83943	3.1209385	100.2960	99.7208	6.981456	30.64405
1806	6.83938	3.1210000	100.0370	99.4634	6.981427	30.64488
1807	6.83938	3.1209692	99.7811	99.2090	6.981437	30.64466
1808	6.83995	3.1209875	99.5191	98.9485	6.981352	30.64447
1809	6.84171	3.1212400	99.2722	98.7031	6.981005	30.64575
1810	6.84461	3.1216219	99.0193	98.4517	6.980454	30.64743
1811	6.84818	3.1219176	98.7574	98.1914	6.979861	30.64758
1812	6.85289	3.1223919	98.4984	97.9339	6.979040	30.64865
1813	6.85838	3.1230449	98.2395	97.6765	6.978035	30.65096
1814	6.86584	3.1237781	97.9834	97.4220	6.976748	30.65239
1815	6.87573	3.1243511	97.7305	97.1706	6.975240	30.64991
1816	6.88651	3.1251275	97.4748	96.9164	6.973523	30.64885
1817	6.89785	3.1258670	97.2218	96.6649	6.971754	30.64688
1818	6.90869	3.1263168	96.9627	96.4073	6.970192	30.64223
1819	6.91901	3.1267297	96.7099	96.1561	6.968713	30.63763
1820	6.92855	3.1273830	96.4509	95.8986	6.967211	30.63634
1821	6.93742	3.1280981	96.2071	95.6563	6.965763	30.63631
1822	6.94556	3.1284494	95.9482	95.3989	6.964582	30.63298
1823	6.95210	3.1288686	95.6892	95.1415	6.963567	30.63182
1824	6.95791	3.1291953	95.4239	94.8777	6.962686	30.63031
1825	6.96326	3.1296145	95.1712	94.6265	6.961817	30.63021
1826	6.96793	3.1298981	94.9153	94.3722	6.961099	30.62924
1827	6.97193	3.1299103	94.6593	94.1177	6.960596	30.62594
1828	6.97489	3.1300582	94.4003	93.8602	6.960154	30.62502
1829	6.97769	3.1302369	94.1445	93.6060	6.959716	30.62458
1830	6.98008	3.1302368	93.8915	93.3545	6.959417	30.62257
1831	6.98195	3.1303293	93.6293	93.0938	6.959137	30.62203
1832	6.98372	3.1304464	93.3704	92.8365	6.958857	30.62184
1833	6.98543	3.1304894	93.1083	92.5759	6.958620	30.62090
1834	6.98678	3.1305078	92.8373	92.3065	6.958440	30.62002
1835	6.98808	3.1306866	92.5780	92.0488	6.958187	30.62092
1836	6.98896	3.1306865	92.3130	91.7853	6.958074	30.62025
1837	6.98969	3.1306248	92.0540	91.5279	6.958009	30.61905
1838	6.99063	3.1305383	91.7980	91.2733	6.957931	30.61740
1839	6.99182	3.1307418	91.5514	91.0282	6.957680	30.61865
1840	6.99291	3.1307109	91.2924	90.7708	6.957556	30.61747
1841	6.99421	3.1308033	91.0332	90.5132	6.957346	30.61743
1842	6.99598	3.1309512	90.7834	90.2648	6.957051	30.61757
1843	6.99764	3.1310683	90.5304	90.0133	6.956784	30.61747
1844	6.99993	3.1310867	90.2686	89.7531	6.956489	30.61576
1845	7.00216	3.1310990	90.0003	89.4863	6.956203	30.61403
1846	7.00465	3.1316355	89.7414	89.2290	6.955629	30.61773
1847	7.00772	3.1318698	89.4884	88.9775	6.955133	30.61766
1848	7.01079	3.1317032	89.2355	88.7261	6.954833	30.61325
1849	7.01333	3.1320300	88.9737	88.4659	6.954355	30.61464
1850	7.01640	3.1322643	88.7204	88.2140	6.953859	30.61456
1851	7.01962	3.1323814	88.4524	87.9476	6.953400	30.61309
1852	7.02274	3.1327947	88.2025	87.6992	6.952811	30.61490
1853	7.02586	3.1328563	87.9465	87.4447	6.952393	30.61291
1854	7.02955	3.1330351	87.6907	87.1904	6.951847	30.61168
1855	7.03350	3.1333311	87.4316	86.9329	6.951212	30.61149
1856	7.03688	3.1333310	87.1787	86.6815	6.950792	30.60860
1857	7.03980	3.1333617	86.9196	86.4239	6.950415	30.60646
1858	7.04266	3.1336023	86.6638	86.1696	6.949941	30.60664
1859	7.04541	3.1337502	86.4108	85.9181	6.949526	30.60590
1860	7.04801	3.1339167	86.1578	85.6666	6.949120	30.60551
1861	7.05030	3.1340771	85.8990	85.4093	6.948756	30.60533
1862	7.05197	3.1342251	85.6490	85.1608	6.948475	30.60556
1863	7.05384	3.1343175	85.3900	84.9034	6.948195	30.60501
1864	7.05582	3.1345519	85.1341	84.6489	6.947833	30.60591
1865	7.05816	3.1346999	84.8689	84.3853	6.947469	30.60555
1866	7.06133	3.1351565	84.6160	84.1339	6.946852	30.60777
1867	7.06492	3.1354279	84.3508	83.8702	6.946274	30.60764
1868	7.06903	3.1356253	84.0888	83.6098	6.945669	30.60624
1869	7.07408	3.1360140	83.8419	83.3644	6.944856	30.60607
1870	7.07971	3.1364644	83.5831	83.1071	6.943943	30.60606
1871	7.08574	3.1367173	83.3300	82.8555	6.943075	30.60355
1872	7.09184	3.1370258	83.0709	82.5979	6.942173	30.60160
1873	7.09803	3.1374763	82.8121	82.3407	6.941190	30.60108
1874	7.10376	3.1379206	82.5500	82.0801	6.940268	30.60091
1875	7.10913	3.1382230	82.3061	81.8376	6.939459	30.59953
1876	7.11319	3.1384451	82.0443	81.5773	6.938849	30.59844
1877	7.11757	3.1387908	81.7913	81.3259	6.938140	30.59840
1878	7.12320	3.1392969	81.5322	81.0683	6.937201	30.59899
1879	7.12877	3.1395252	81.2579	80.7956	6.936402	30.59664
1880	7.13357	3.1398338	80.9865	80.5258	6.935661	30.59584
1881	7.13748	3.1399510	80.7307	80.2715	6.935121	30.59375
1882	7.14102	3.1400744	80.4750	80.0173	6.934622	30.59206
1883	7.14436	3.1401608	80.2190	79.7628	6.934167	30.59015
1884	7.14665	3.1400125	79.9691	79.5144	6.933954	30.58663
1885	7.14832	3.1400741	79.6915	79.2384	6.933714	30.58594
1886	7.15020	3.1406854	79.4355	78.9839	6.933184	30.59098
1887	7.15244	3.1406667	79.1767	78.7267	6.932913	30.58891
1888	7.15406	3.1404320	78.9267	78.4781	6.932825	30.58506
1889	7.15541	3.1405924	78.6677	78.2206	6.932576	30.58570
1890	7.15703	3.1406665	78.4148	77.9693	6.932337	30.58518
1891	7.15891	3.1409072	78.1528	77.7087	6.931986	30.58623
1892	7.16058	3.1411480	77.8878	77.4453	6.931660	30.58747
1893	7.16199	3.1412034	77.6377	77.1967	6.931456	30.58693
1894	7.16303	3.1412219	77.3757	76.9362	6.931315	30.58632
1895	7.16397	3.1413268	77.1257	76.6877	6.931144	30.58673
1896	7.16496	3.1413267	76.8667	76.4302	6.931018	30.58597
1897	7.16574	3.1413266	76.6231	76.1880	6.930918	30.58538
1898	7.16653	3.1414377	76.3486	75.9151	6.930763	30.58601
1899	7.16715	3.1413882	76.0987	75.6667	6.930705	30.58504
1900	7.16767	3.1415055	75.8429	75.4124	6.930580	30.58595
1901	7.16783	3.1415363	75.5900	75.1610	6.930541	30.58626
1902	7.16809	3.1415362	75.3371	74.9095	6.930504	30.58614
1903	7.16846	3.1415361	75.0811	74.6550	6.930454	30.58593
1904	7.16908	3.1415916	74.8253	74.4007	6.930345	30.58609
1905	7.16986	3.1417706	74.5692	74.1461	6.930158	30.58744
1906	7.17101	3.1418508	74.3163	73.8947	6.929974	30.58740
1907	7.17263	3.1418940	74.0663	73.6462	6.929751	30.58654
1908	7.17456	3.1419495	73.8043	73.3857	6.929483	30.58555
1909	7.17644	3.1421038	73.5420	73.1250	6.929174	30.58566
1910	7.17832	3.1422519	73.2921	72.8766	6.928867	30.58571
1911	7.18030	3.1423383	73.0422	72.6281	6.928579	30.58500
1912	7.18218	3.1423876	72.7833	72.3707	6.928320	30.58398
1913	7.18395	3.1426408	72.5336	72.1225	6.927976	30.58525
1914	7.18615	3.1426963	72.2713	71.8617	6.927677	30.58402
1915	7.18844	3.1427888	72.0124	71.6043	6.927346	30.58310
1916	7.19100	3.1427887	71.7594	71.3527	6.927029	30.58095
1917	7.19387	3.1427268	71.5006	71.0955	6.926703	30.57786
1918	7.19648	3.1428812	71.2503	70.8467	6.926305	30.57733
1919	7.19956	3.1427019	70.9885	70.5864	6.926011	30.57279
1920	7.20264	3.1427883	70.7355	70.3348	6.925588	30.57111
1921	7.20557	3.1427264	70.4825	70.0833	6.925256	30.56797
1922	7.20765	3.1425163	70.2326	69.8349	6.925098	30.56397
1923	7.20985	3.1425100	69.9796	69.5833	6.924828	30.56208
1924	7.21204	3.1424296	69.7114	69.3167	6.924594	30.55940
1925	7.21403	3.1422813	69.4526	69.0594	6.924419	30.55616
1926	7.21653	3.1426950	69.1721	68.7806	6.923908	30.55852
1927	7.21920	3.1425714	68.9102	68.5202	6.923637	30.55495
1928	7.22118	3.1424663	68.6571	68.2685	6.923441	30.55218
1929	7.22348	3.1426021	68.3920	68.0050	6.923090	30.55173
1930	7.22547	3.1425773	68.1359	67.7504	6.922854	30.54983
1931	7.22766	3.1427563	67.8832	67.4992	6.922495	30.54993
1932	7.23001	3.1427871	67.6301	67.2475	6.922189	30.54829
1933	7.23189	3.1428796	67.3742	66.9932	6.921910	30.54774
1934	7.23330	3.1429043	67.1150	66.7355	6.921721	30.54687
1935	7.23450	3.1429351	66.8591	66.4810	6.921554	30.54626
1936	7.23607	3.1430585	66.6033	66.2267	6.921298	30.54632
1937	7.23764	3.1431449	66.3410	65.9659	6.921060	30.54598
1938	7.23895	3.1432375	66.0911	65.7175	6.920851	30.54593
1939	7.23983	3.1431138	65.8260	65.4540	6.920798	30.54393
1940	7.24088	3.1432373	65.5669	65.1963	6.920605	30.54445
1941	7.24193	3.1432928	65.3140	64.9449	6.920446	30.54424
1942	7.24276	3.1434410	65.0579	64.6903	6.920268	30.54521
1943	7.24344	3.1434409	64.8051	64.4390	6.920180	30.54472
1944	7.24407	3.1434161	64.5397	64.1751	6.920110	30.54402
1945	7.24464	3.1435952	64.2779	63.9148	6.919949	30.54555
1946	7.24537	3.1436507	64.0280	63.6663	6.919828	30.54561
1947	7.24595	3.1436815	63.7691	63.4090	6.919738	30.54555
1948	7.24642	3.1437741	63.5127	63.1541	6.919630	30.54625
1949	7.24710	3.1438049	63.2597	62.9025	6.919528	30.54609
1950	7.24783	3.1440086	63.0038	62.6481	6.919335	30.54775
1951	7.24862	3.1439530	62.7449	62.3907	6.919261	30.54657
1952	7.24956	3.1438911	62.4919	62.1392	6.919172	30.54519
1953	7.25055	3.1438601	62.2237	61.8726	6.919060	30.54410
1954	7.25170	3.1440392	61.9647	61.6150	6.918829	30.54513
1955	7.25295	3.1441627	61.7056	61.3574	6.918611	30.54546
1956	7.25478	3.1442491	61.4528	61.1061	6.918342	30.54489
1957	7.25661	3.1443107	61.1877	60.8425	6.918084	30.54405
1958	7.25865	3.1445207	60.9346	60.5909	6.917729	30.54462
1959	7.26095	3.1446565	60.6756	60.3334	6.917378	30.54417
1960	7.26352	3.1447862	60.4135	60.0729	6.916999	30.54341
1961	7.26582	3.1448478	60.1484	59.8092	6.916683	30.54216
1962	7.26765	3.1449404	59.8953	59.5576	6.916411	30.54166
1963	7.26880	3.1447797	59.6424	59.3061	6.916343	30.53903
1964	7.26927	3.1444892	59.3864	59.0517	6.916421	30.53560
1965	7.26906	3.1443100	59.1244	58.7912	6.916527	30.53398
1966	7.26827	3.1440257	58.8593	58.5276	6.916754	30.53173
1967	7.26618	3.1435500	58.6063	58.2761	6.917233	30.52858
1968	7.26268	3.1428890	58.3502	58.0214	6.917973	30.52468
1969	7.25865	3.1421601	58.0882	57.7609	6.918810	30.52052
1970	7.25437	3.1413818	57.8353	57.5095	6.919702	30.51605
1971	7.24961	3.1404555	57.5761	57.2519	6.920723	30.51040
1972	7.24490	3.1397700	57.3020	56.9793	6.921622	30.50731
1973	7.24114	3.1392883	57.0276	56.7065	6.922307	30.50557
1974	7.23842	3.1388993	56.7687	56.4491	6.922821	30.50390
1975	7.23639	3.1385103	56.5159	56.1977	6.923253	30.50162
1976	7.23497	3.1382695	56.2565	55.9398	6.923536	30.50039
1977	7.23388	3.1380904	55.9977	55.6825	6.923751	30.49955
1978	7.23335	3.1379113	55.7446	55.4309	6.923896	30.49820
1979	7.23320	3.1377939	55.4793	55.1671	6.923966	30.49719
1980	7.23283	3.1376765	55.2203	54.9096	6.924062	30.49637
1981	7.23252	3.1375283	54.9583	54.6491	6.924167	30.49517
1982	7.23252	3.1374048	54.7115	54.4037	6.924222	30.49395
1983	7.23241	3.1372874	54.4526	54.1463	6.924286	30.49290
1984	7.23247	3.1371947	54.1871	53.8823	6.924319	30.49197
1985	7.23262	3.1371576	53.9250	53.6218	6.924312	30.49155
1986	7.23320	3.1370773	53.6631	53.3614	6.924276	30.49030
1987	7.23383	3.1369908	53.4070	53.1067	6.924236	30.48893
1988	7.23430	3.1369907	53.1481	52.8493	6.924173	30.48863
1989	7.23492	3.1369597	52.8888	52.5915	6.924107	30.48786
1990	7.23560	3.1369288	52.6328	52.3370	6.924034	30.48704
1991	7.23618	3.1369596	52.3707	52.0764	6.923943	30.48698
1992	7.23696	3.1369904	52.1117	51.8188	6.923828	30.48674
1993	7.23759	3.1369285	51.8494	51.5581	6.923776	30.48563
1994	7.23811	3.1368976	51.5875	51.2977	6.923722	30.48496
1995	7.23874	3.1368666	51.3255	51.0372	6.923655	30.48419
1996	7.23900	3.1368110	51.0695	50.7827	6.923645	30.48347
1997	7.23916	3.1366566	50.8102	50.5249	6.923695	30.48179
1998	7.23921	3.1365393	50.5482	50.2644	6.923740	30.48060
1999	7.23916	3.1364219	50.2862	50.0038	6.923798	30.47950
2000	7.23936	3.1362984	50.0269	49.7461	6.923827	30.47810
2001	7.23957	3.1361502	49.7679	49.4885	6.923867	30.47644
2002	7.23989	3.1360020	49.5089	49.2310	6.923895	30.47469
2003	7.24041	3.1359710	49.2529	48.9765	6.923841	30.47401
2004	7.24083	3.1358228	48.9939	48.7189	6.923857	30.47216
2005	7.24135	3.1357055	48.7378	48.4643	6.923844	30.47055
2006	7.24140	3.1354647	48.4726	48.2006	6.923949	30.46804
2007	7.24109	3.1351067	48.2106	47.9401	6.924155	30.46458
2008	7.24078	3.1348413	47.9456	47.6766	6.924316	30.46212
2009	7.24025	3.1344956	47.6955	47.4280	6.924541	30.45898
2010	7.23936	3.1341870	47.4303	47.1643	6.924793	30.45656
2011	7.23863	3.1338537	47.1744	46.9098	6.925038	30.45374
2012	7.23790	3.1334958	46.9091	46.6461	6.925295	30.45065
2013	7.23722	3.1331687	46.6533	46.3918	6.925531	30.44785
2014	7.23659	3.1329589	46.3942	46.1341	6.925703	30.44626
2015	7.23628	3.1326627	46.1290	45.8705	6.925879	30.44347
2016	7.23592	3.1322739	45.8762	45.6191	6.926106	30.43972
2017	7.23576	3.1319777	45.6141	45.3585	6.926263	30.43679
2018	7.23571	3.1317124	45.3517	45.0976	6.926392	30.43410
2019	7.23597	3.1315088	45.0804	44.8279	6.926453	30.43181
2020	7.23628	3.1312928	44.8091	44.5581	6.926514	30.42933
2021	7.23665	3.1312063	44.5502	44.3007	6.926506	30.42819
2022	7.23727	3.1310520	44.2910	44.0430	6.926498	30.42610
2023	7.23806	3.1309039	44.0322	43.7856	6.926469	30.42393
2024	7.23900	3.1308175	43.7731	43.5280	6.926390	30.42229
2025	7.24004	3.1307249	43.5108	43.2672	6.926302	30.42049
2026	7.24088	3.1306076	43.2550	43.0128	6.926252	30.41861
2027	7.24198	3.1305458	42.9928	42.7521	6.926142	30.41710
2028	7.24313	3.1304717	42.7306	42.4914	6.926032	30.41540
2029	7.24402	3.1304285	42.4655	42.2279	6.925939	30.41428
2030	7.24490	3.1303174	42.2004	41.9643	6.925879	30.41242
2031	7.24585	3.1302186	41.9472	41.7126	6.925806	30.41064
2032	7.24652	3.1301322	41.6822	41.4491	6.925760	30.40923
2033	7.24731	3.1300087	41.4169	41.1852	6.925718	30.40734
2034	7.24799	3.1299531	41.1578	40.9276	6.925657	30.40626
2035	7.24867	3.1298605	40.8927	40.6640	6.925613	30.40478
2036	7.24919	3.1297741	40.6275	40.4004	6.925586	30.40351
2037	7.24966	3.1297123	40.3623	40.1366	6.925553	30.40255
2038	7.25018	3.1296814	40.1033	39.8791	6.925499	30.40188
2039	7.25076	3.1295950	39.8444	39.6217	6.925465	30.40056
2040	7.25118	3.1295949	39.5822	39.3609	6.925409	30.40030
2041	7.25170	3.1294777	39.3108	39.0911	6.925396	30.39871
2042	7.25217	3.1293727	39.0305	38.8124	6.925384	30.39729
2043	7.25275	3.1293850	38.7652	38.5486	6.925302	30.39703
2044	7.25322	3.1292061	38.5031	38.2880	6.925326	30.39481
2045	7.25390	3.1291505	38.2318	38.0183	6.925264	30.39374
2046	7.25473	3.1289407	37.9667	37.7547	6.925258	30.39087
2047	7.25583	3.1287926	37.6985	37.4880	6.925190	30.38843
2048	7.25688	3.1286445	37.4363	37.2273	6.925128	30.38604
2049	7.25776	3.1283731	37.1773	36.9697	6.925145	30.38246
2050	7.25850	3.1281387	36.9123	36.7062	6.925163	30.37941
2051	7.25923	3.1279290	36.6531	36.4485	6.925170	30.37663
2052	7.25996	3.1277501	36.3879	36.1848	6.925161	30.37419
2053	7.26069	3.1275712	36.1257	35.9241	6.925153	30.37174
2054	7.26111	3.1273923	35.8546	35.6545	6.925183	30.36957
2055	7.26148	3.1273059	35.5954	35.3968	6.925174	30.36844
2056	7.26179	3.1271271	35.3332	35.1361	6.925217	30.36636
2057	7.26210	3.1270160	35.0713	34.8757	6.925227	30.36500
2058	7.26216	3.1269173	34.8151	34.6210	6.925263	30.36401
2059	7.26257	3.1267446	34.5348	34.3422	6.925290	30.36191
2060	7.26284	3.1266459	34.2665	34.0754	6.925300	30.36074
2061	7.26315	3.1265903	33.9922	33.8027	6.925283	30.35999
2062	7.26346	3.1265470	33.7332	33.5452	6.925260	30.35937
2063	7.26388	3.1264607	33.4649	33.2783	6.925245	30.35819
2064	7.26409	3.1264421	33.2026	33.0176	6.925224	30.35792
2065	7.26451	3.1262940	32.9316	32.7481	6.925238	30.35609
2066	7.26488	3.1262323	32.6570	32.4751	6.925218	30.35523
2067	7.26529	3.1261398	32.3828	32.2024	6.925206	30.35399
2068	7.26566	3.1259917	32.1146	31.9357	6.925227	30.35219
2069	7.26597	3.1259053	31.8524	31.6750	6.925225	30.35111
2070	7.26644	3.1257881	31.5904	31.4144	6.925219	30.34955
2071	7.26681	3.1256648	31.3252	31.1507	6.925228	30.34802
2072	7.26723	3.1254613	31.0601	30.8871	6.925270	30.34559
2073	7.26775	3.1253687	30.7887	30.6173	6.925245	30.34426
2074	7.26807	3.1251899	30.5328	30.3628	6.925288	30.34217
2075	7.26854	3.1249802	30.2553	30.0869	6.925326	30.33963
2076	7.26875	3.1248322	29.9930	29.8261	6.925367	30.33798
2077	7.26901	3.1246288	29.7220	29.5566	6.925427	30.33568
2078	7.26927	3.1244808	29.4568	29.2929	6.925461	30.33398
2079	7.26963	3.1242711	29.1976	29.0352	6.925512	30.33152
2080	7.26984	3.1240923	28.9356	28.7746	6.925568	30.32954
2081	7.27016	3.1238765	28.6674	28.5079	6.925628	30.32706
2082	7.27037	3.1237347	28.3931	28.2351	6.925665	30.32548
2083	7.27068	3.1234388	28.1277	27.9713	6.925764	30.32215
2084	7.27105	3.1231984	27.8536	27.6987	6.925830	30.31936
2085	7.27157	3.1227854	27.5791	27.4258	6.925960	30.31459
2086	7.27225	3.1223109	27.3231	27.1712	6.926100	30.30902
2087	7.27314	3.1217131	27.0549	26.9045	6.926274	30.30194
2088	7.27434	3.1209737	26.7866	26.6377	6.926478	30.29307
2089	7.27534	3.1202467	26.5217	26.3743	6.926701	30.28451
2090	7.27774	3.1191933	26.2626	26.1166	6.926909	30.27121
2091	7.28057	3.1180415	25.9972	25.8528	6.927113	30.25650
2092	7.28334	3.1173270	25.7349	25.5920	6.927112	30.24652
2093	7.28575	3.1166434	25.4608	25.3193	6.927141	30.23721
2094	7.28841	3.1160830	25.1832	25.0433	6.927079	30.22898
2095	7.29114	3.1153934	24.8997	24.7615	6.927073	30.21933
2096	7.29323	3.1145622	24.6317	24.4949	6.927211	30.20871
2097	7.29543	3.1136449	24.3787	24.2433	6.927378	30.19707
2098	7.29757	3.1122046	24.1043	23.9705	6.927803	30.17987
2099	7.29940	3.1111707	23.8422	23.7098	6.928071	30.16730
2100	7.30124	3.1101984	23.5800	23.4492	6.928310	30.15540
2101	7.30291	3.1089864	23.3088	23.1795	6.928682	30.14106
2102	7.30459	3.1076884	23.0406	22.9127	6.929096	30.12581
2103	7.30616	3.1068580	22.7754	22.6490	6.929298	30.11566
2104	7.30747	3.1062245	22.5133	22.3884	6.929437	30.10784
2105	7.30888	3.1054742	22.2478	22.1244	6.929620	30.09869
2106	7.30987	3.1048223	21.9736	21.8517	6.929806	30.09096
2107	7.31097	3.1040906	21.6963	21.5759	6.930017	30.08229
2108	7.31202	3.1031991	21.4038	21.2851	6.930312	30.07195
2109	7.31307	3.1026088	21.1352	21.0181	6.930462	30.06484
2110	7.31375	3.1018773	20.8673	20.7516	6.930725	30.05653
2111	7.31453	3.1012257	20.5930	20.4788	6.930937	30.04898
2112	7.31527	3.1006541	20.3094	20.1968	6.931116	30.04235
2113	7.31589	3.0999350	20.0259	19.9149	6.931379	30.03422
2114	7.31631	3.0992222	19.7638	19.6543	6.931665	30.02634
2115	7.31652	3.0986077	19.4955	19.3875	6.931930	30.01969
2116	7.31652	3.0977598	19.2335	19.1269	6.932333	30.01073
2117	7.31689	3.0970779	18.9621	18.8571	6.932610	30.00322
2118	7.31705	3.0961626	18.7058	18.6022	6.933026	29.99340
2119	7.31726	3.0954009	18.4591	18.3568	6.933362	29.98517
2120	7.31757	3.0949095	18.2000	18.0992	6.933554	29.97975
2121	7.31794	3.0945471	17.9350	17.8357	6.933678	29.97566
2122	7.31830	3.0931962	17.6819	17.5840	6.934278	29.96099
2123	7.31872	3.0924655	17.4320	17.3355	6.934573	29.95291
2124	7.31909	3.0916490	17.1849	17.0898	6.934916	29.94396
2125	7.31972	3.0911148	16.9229	16.8292	6.935090	29.93781
2126	7.32024	3.0905562	16.6731	16.5808	6.935290	29.93149
2127	7.32103	3.0895864	16.4138	16.3230	6.935654	29.92054
2128	7.32176	3.0884449	16.1608	16.0713	6.936108	29.90780
2129	7.32260	3.0875367	15.9017	15.8137	6.936437	29.89746
2130	7.32333	3.0864200	15.6487	15.5622	6.936878	29.88499
2131	7.32448	3.0849294	15.3985	15.3134	6.937449	29.86815
2132	7.32563	3.0833776	15.1428	15.0591	6.938048	29.85066
2133	7.32689	3.0814461	14.8864	14.8041	6.938817	29.82902
2134	7.32846	3.0795640	14.6366	14.5557	6.939523	29.80764
2135	7.33003	3.0776456	14.3930	14.3134	6.940247	29.78587
2136	7.33145	3.0759543	14.1366	14.0585	6.940881	29.76667
2137	7.33286	3.0747229	13.8839	13.8071	6.941294	29.75240
2138	7.33407	3.0735038	13.6276	13.5523	6.941726	29.73844
2139	7.33553	3.0723033	13.3749	13.3010	6.942117	29.72445
2140	7.33658	3.0716051	13.1218	13.0493	6.942319	29.71620
2141	7.33779	3.0708764	12.8657	12.7946	6.942515	29.70748
2142	7.33883	3.0698661	12.6065	12.5368	6.942867	29.69589
2143	7.33999	3.0684886	12.3567	12.2885	6.943382	29.68029
2144	7.34124	3.0672399	12.1035	12.0366	6.943822	29.66597
2145	7.34271	3.0663952	11.8596	11.7941	6.944042	29.65580
2146	7.34376	3.0656241	11.6098	11.5457	6.944278	29.64677
2147	7.34491	3.0644493	11.3567	11.2940	6.944695	29.63333
2148	7.34622	3.0635193	11.1129	11.0516	6.944975	29.62238
2149	7.34785	3.0627423	10.8629	10.8029	6.945143	29.61280
2150	7.34963	3.0616902	10.6039	10.5454	6.945423	29.60015
2151	7.35214	3.0596293	10.3477	10.2906	6.946098	29.57609
2152	7.35660	3.0570737	10.1007	10.0450	6.946770	29.54510
2153	7.36200	3.0532786	9.8448	9.7904	6.947919	29.50009
2154	7.36755	3.0482762	9.5948	9.5419	6.949628	29.44208
2155	7.37426	3.0427338	9.3448	9.2932	6.951452	29.37736
2156	7.38134	3.0378720	9.0949	9.0447	6.952903	29.31962
2157	7.38743	3.0338909	8.8448	8.7960	6.954053	29.27215
2158	7.39272	3.0306245	8.5920	8.5446	6.954957	29.23298
2159	7.39750	3.0271645	8.3236	8.2777	6.956017	29.19221
2160	7.40185	3.0235052	8.0616	8.0172	6.957225	29.14969
2161	7.40516	3.0212593	7.8084	7.7654	6.957886	29.12310
2162	7.40805	3.0185577	7.5555	7.5139	6.958817	29.09203
2163	7.41072	3.0169700	7.3054	7.2652	6.959240	29.07299
2164	7.41282	3.0155711	7.0496	7.0107	6.959644	29.05645
2165	7.41550	3.0134611	6.7874	6.7500	6.960317	29.03187
2166	7.41823	3.0107804	6.5404	6.5044	6.961256	29.00118
2167	7.42111	3.0079305	6.2904	6.2557	6.962257	28.96856
2168	7.42447	3.0043771	6.0374	6.0041	6.963535	28.92807
2169	7.42799	2.9995022	5.7845	5.7526	6.965427	28.87343
2170	7.43119	2.9949213	5.5313	5.5008	6.967216	28.82219
2171	7.43282	2.9885066	5.2785	5.2495	6.970081	28.75280
2172	7.43261	2.9815581	5.0284	5.0007	6.973432	28.67928
2173	7.43140	2.9738777	4.7724	4.7461	6.977259	28.59885
2174	7.42930	2.9627666	4.5315	4.5066	6.982845	28.48276
2175	7.42584	2.9532096	4.2724	4.2488	6.987860	28.38432
2176	7.42211	2.9436882	4.0194	3.9973	6.992894	28.28650
2177	7.41812	2.9346538	3.7724	3.7517	6.997730	28.19408
2178	7.41366	2.9225941	3.5285	3.5091	7.004082	28.07000
2179	7.40962	2.9075651	3.2756	3.2576	7.011811	27.91418
2180	7.40595	2.8944092	3.0285	3.0119	7.018599	27.77797
2181	7.40296	2.8826028	2.7849	2.7696	7.024654	27.65554
2182	7.40154	2.8705635	2.5317	2.5178	7.030622	27.52946
2183	7.40275	2.8550924	2.2817	2.2691	7.037906	27.36511
2184	7.40847	2.8340233	2.0347	2.0236	7.047303	27.13827
2185	7.41760	2.8114240	1.7909	1.7810	7.056991	26.89297
2186	7.42862	2.7964678	1.5745	1.5659	7.062749	26.72702
2187	7.44291	2.7773289	1.3549	1.3474	7.070086	26.51483
2188	7.46066	2.7656071	1.1417	1.1354	7.073394	26.37824
2189	7.47801	2.7516286	0.9344	0.9293	7.077830	26.21849
2190	7.49336	2.7385445	0.7117	0.7077	7.082090	26.06987
2191	7.50798	2.7228128	0.4954	0.4926	7.087707	25.89430
2192	7.52271	2.7388316	0.2822	0.2806	7.078083	26.05103
2193	7.53477	2.9392037	0.0809	0.0804	6.980732	28.14913
2194	7.51429	2.8936827	0.0595	0.0592	7.005063	27.68497
2195	7.46171	2.9203873	0.0625	0.0621	6.998974	28.00924
2196	7.42768	2.9961148	0.0534	0.0531	6.966980	28.84011
2197	7.40259	3.0309509	0.0565	0.0562	6.953410	29.23180
2198	7.38098	3.0476138	0.0565	0.0562	6.948098	29.42772
2199	7.36263	1.8310667	0.0596	0.0593	7.541052	16.84513
2200	7.35078	0.5098465	0.0534	0.0531	8.184206	4.24888
2201	7.34758	0.9491052	0.0564	0.0561	7.974304	8.27351
2202	7.34753	0.7753007	0.0564	0.0561	8.058268	6.65611
2203	7.34785	0.8080138	0.0564	0.0561	8.042459	6.95820
2204	7.34884	0.8190787	0.0594	0.0591	8.036941	7.06044
2205	7.34984	0.7624467	0.0533	0.0531	8.064018	6.53726
2206	7.35031	0.7036745	0.0563	0.0560	8.092130	5.99803
2207	7.35073	0.6606612	0.0503	0.0500	8.112622	5.60583
2208	7.35109	0.5309293	0.0594	0.0591	8.174194	4.43673
2209	7.35151	0.5365990	0.0562	0.0559	8.171434	4.48731
2210	7.35183	0.4587077	0.0596	0.0593	8.208047	3.79567
2211	7.35204	0.3999592	0.0626	0.0622	8.235450	3.28013
2212	7.35235	0.4722176	0.0533	0.0530	8.201606	3.91493
2213	7.35303	0.4020133	0.0593	0.0590	8.234297	3.29797
2214	7.35324	0.3394746	0.0533	0.0531	8.263233	2.75541
2215	7.35361	0.2875579	0.0564	0.0561	8.286989	2.31063
2216	7.35398	0.2576925	0.0593	0.0590	8.300516	2.05735
2217	7.35445	0.2436249	0.0533	0.0531	8.306797	1.93874
2218	7.35471	0.2349023	0.0502	0.0499	8.310687	1.86543
2219	7.35476	0.2458701	0.0594	0.0590	8.305717	1.95761
2220	7.35497	0.2341455	0.0533	0.0530	8.310975	1.85907
2221	7.35508	0.2394409	0.0533	0.0530	8.308562	1.90353
2222	7.35560	0.2233293	0.0594	0.0591	8.315725	1.76844
2223	7.35586	0.2195374	0.0561	0.0558	8.317378	1.73674
2224	7.35628	0.2043693	0.0595	0.0592	8.324102	1.61034
2225	7.35654	0.1983664	0.0474	0.0471	8.326736	1.56048
2226	7.35681	0.1832853	0.0562	0.0559	8.333412	1.43570
2227	7.35717	0.1752679	0.0564	0.0561	8.336903	1.36963
2228	7.35733	0.1657968	0.0594	0.0590	8.341070	1.29184
2229	7.35754	0.1574364	0.0565	0.0562	8.344724	1.22341
2230	7.35754	0.1435280	0.0623	0.0620	8.350848	1.11009
2231	7.35791	0.1457111	0.0592	0.0589	8.349814	1.12782
2232	7.35812	0.1433965	0.0562	0.0559	8.350788	1.10900
2233	7.35812	0.1405426	0.0620	0.0617	8.352041	1.08584
2234	7.35848	0.1349595	0.0502	0.0499	8.354413	1.04059
2235	7.35848	0.1352346	0.0594	0.0590	8.354292	1.04281
2236	7.35864	0.1333817	0.0533	0.0531	8.355071	1.02782
2237	7.35864	0.1369578	0.0533	0.0531	8.353505	1.05676
2238	7.35848	0.1444713	0.0562	0.0559	8.350241	1.11772
2239	7.35817	0.1409529	0.0563	0.0560	8.351850	1.08916
