Scan Count	Temperature [ITS-90, deg C]	Conductivity [S/m]	Pressure, Strain Gauge [db]	Depth [salt water, m]	Oxygen Saturation, Weiss [ml/l]	Salinity, Practical [PSU]
1	10.26444	0.0004225	0.1288	0.1281	7.841664	0.00678
2	10.26766	0.0003948	0.1258	0.1251	7.841078	0.00665
3	10.26670	0.0003794	0.1258	0.1251	7.841259	0.00657
4	10.26140	0.0003855	0.1288	0.1281	7.842234	0.00660
5	10.25023	0.0004010	0.1258	0.1251	7.844289	0.00667
6	10.23680	0.0004040	0.1258	0.1251	7.846763	0.00668
7	10.22654	0.0003948	0.1287	0.1280	7.848659	0.00663
8	10.21741	0.0003855	0.1287	0.1280	7.850346	0.00658
9	10.21347	0.0003670	0.1258	0.1251	7.851079	0.00648
10	10.21330	0.0003640	0.1350	0.1342	7.851111	0.00647
11	10.21634	0.0003485	0.1348	0.1341	7.850552	0.00640
12	10.22175	0.0003331	0.1350	0.1343	7.849557	0.00633
13	10.22863	0.0003794	0.1257	0.1250	7.848277	0.00655
14	10.23635	0.0004133	0.1349	0.1342	7.846844	0.00672
15	10.24323	0.0004040	0.1288	0.1281	7.845578	0.00668
16	10.24932	0.0004010	0.1318	0.1311	7.844456	0.00667
17	10.25491	0.0003855	0.1287	0.1280	7.843430	0.00659
18	10.26072	0.0003701	0.1319	0.1311	7.842363	0.00652
19	10.26608	0.0003424	0.1288	0.1281	7.841382	0.00639
20	10.27206	0.0003239	0.1257	0.1250	7.840284	0.00631
21	10.27641	0.0003146	0.1197	0.1190	7.839486	0.00627
22	10.27957	0.0003146	0.1257	0.1250	7.838904	0.00627
23	10.28115	0.0003085	0.1227	0.1220	7.838614	0.00624
24	10.28471	0.0003331	0.1288	0.1281	7.837954	0.00636
25	10.28888	0.0003424	0.1318	0.1311	7.837183	0.00640
26	10.29142	0.0003640	0.1318	0.1310	7.836710	0.00651
27	10.29188	0.0003763	0.1257	0.1250	7.836624	0.00657
28	10.28984	0.0003855	0.1227	0.1220	7.836996	0.00661
29	10.28600	0.0003855	0.1257	0.1250	7.837702	0.00661
30	10.28239	0.0003948	0.1258	0.1251	7.838365	0.00665
31	10.28369	0.0003794	0.1319	0.1311	7.838130	0.00658
32	10.28578	0.0003855	0.1288	0.1281	7.837744	0.00661
33	10.28668	0.0003794	0.1288	0.1281	7.837579	0.00658
34	10.28832	0.0003763	0.1228	0.1221	7.837279	0.00656
35	10.29205	0.0003855	0.1288	0.1281	7.836590	0.00661
36	10.29622	0.0003855	0.1319	0.1311	7.835822	0.00661
37	10.30001	0.0003948	0.1319	0.1312	7.835123	0.00666
38	10.30300	0.0004010	0.1288	0.1281	7.834571	0.00669
39	10.30594	0.0003948	0.1257	0.1250	7.834032	0.00666
40	10.30893	0.0003948	0.1318	0.1311	7.833482	0.00666
41	10.31317	0.0003794	0.1349	0.1341	7.832706	0.00659
42	10.31803	0.0003670	0.1349	0.1342	7.831816	0.00653
43	10.32210	0.0003640	0.1319	0.1311	7.831069	0.00652
44	10.32555	0.0003578	0.1318	0.1311	7.830436	0.00649
45	10.33035	0.0003578	0.1320	0.1312	7.829554	0.00650
46	10.33510	0.0003547	0.1350	0.1343	7.828682	0.00648
47	10.33962	0.0003424	0.1320	0.1312	7.827854	0.00643
48	10.34313	0.0003331	0.1288	0.1281	7.827212	0.00639
49	10.34618	0.0003300	0.1319	0.1312	7.826652	0.00637
50	10.34867	0.0003239	0.1289	0.1282	7.826197	0.00634
51	10.35223	0.0003085	0.1258	0.1251	7.825546	0.00628
52	10.35365	0.0003054	0.1320	0.1312	7.825288	0.00626
53	10.35608	0.0003054	0.1320	0.1312	7.824841	0.00626
54	10.35959	0.0002930	0.1288	0.1281	7.824200	0.00621
55	10.36321	0.0002869	0.1319	0.1312	7.823537	0.00618
56	10.36688	0.0002838	0.1319	0.1312	7.822863	0.00617
57	10.37079	0.0002776	0.1289	0.1282	7.822148	0.00614
58	10.37441	0.0002869	0.1290	0.1283	7.821482	0.00619
59	10.37769	0.0002838	0.1350	0.1342	7.820881	0.00617
60	10.38001	0.0002776	0.1320	0.1312	7.820457	0.00615
61	10.38211	0.0002838	0.1320	0.1312	7.820071	0.00618
62	10.38494	0.0002776	0.1290	0.1283	7.819554	0.00615
63	10.38748	0.0002715	0.1289	0.1282	7.819088	0.00612
64	10.38839	0.0002684	0.1289	0.1282	7.818923	0.00611
65	10.38799	0.0002715	0.1319	0.1312	7.818995	0.00612
66	10.38731	0.0002684	0.1350	0.1343	7.819120	0.00611
67	10.38726	0.0002622	0.1260	0.1253	7.819132	0.00608
68	10.38550	0.0002715	0.1290	0.1283	7.819451	0.00612
69	10.38347	0.0002684	0.1320	0.1313	7.819826	0.00611
70	10.38126	0.0002715	0.1321	0.1314	7.820230	0.00612
71	10.36875	0.0002684	0.1290	0.1283	7.822524	0.00610
72	10.35144	0.0002715	0.1351	0.1343	7.825700	0.00611
73	10.33425	0.0002622	0.1320	0.1313	7.828859	0.00606
74	10.31809	0.0002684	0.1321	0.1314	7.831828	0.00608
75	10.30328	0.0002715	0.1291	0.1284	7.834549	0.00608
76	10.28973	0.0002715	0.1322	0.1315	7.837043	0.00608
77	10.27624	0.0002684	0.1322	0.1315	7.839528	0.00605
78	10.26337	0.0002776	0.1320	0.1313	7.841896	0.00609
79	10.25130	0.0002684	0.1321	0.1314	7.844123	0.00604
80	10.24227	0.0002715	0.1291	0.1284	7.845786	0.00605
81	10.23917	0.0002715	0.1322	0.1315	7.846358	0.00605
82	10.23669	0.0002684	0.1291	0.1284	7.846816	0.00604
83	10.22677	0.0002715	0.1291	0.1284	7.848646	0.00604
84	10.22372	0.0002684	0.1291	0.1284	7.849208	0.00603
85	10.22716	0.0002776	0.1353	0.1345	7.848572	0.00607
86	10.23291	0.0002869	0.1413	0.1405	7.847509	0.00612
87	10.05118	1.0027172	0.2176	0.2164	7.484782	8.13411
88	9.42463	2.0790338	0.2846	0.2830	7.120477	18.24960
89	8.93666	2.1250375	0.3516	0.3496	7.169045	18.94787
90	8.59724	2.1573943	0.4828	0.4801	7.202628	19.44829
91	8.33668	2.1941515	0.6137	0.6103	7.222871	19.95738
92	8.14687	2.2119924	0.7417	0.7376	7.241668	20.24371
93	8.02402	2.2210841	0.8729	0.8681	7.254976	20.40596
94	7.94976	2.2114771	0.9643	0.9590	7.270150	20.35247
95	7.91063	2.1947568	0.9948	0.9893	7.283681	20.20680
96	7.91339	2.1975188	0.9856	0.9802	7.281977	20.23301
97	7.93864	2.1961565	0.9827	0.9773	7.278980	20.20473
98	7.94587	2.2028127	0.9765	0.9711	7.274797	20.26752
99	7.93093	2.2124727	0.9855	0.9801	7.272385	20.37343
100	7.91254	2.2183019	0.9795	0.9741	7.272274	20.44288
101	7.90372	2.2216734	0.9887	0.9832	7.271947	20.48202
102	7.90356	2.2259405	0.9948	0.9893	7.269952	20.52515
103	7.89969	2.2371530	1.0040	0.9984	7.265205	20.64057
104	7.88598	2.2503875	1.0011	0.9956	7.260905	20.78234
105	7.87234	2.2553197	1.0039	0.9984	7.260520	20.84031
106	7.86321	2.2581570	0.9979	0.9924	7.260480	20.87445
107	7.85774	2.2609133	0.9979	0.9924	7.259954	20.90560
108	7.85477	2.2637530	0.9980	0.9925	7.259032	20.93611
109	7.85435	2.2656231	0.9916	0.9862	7.258207	20.95529
110	7.85435	2.2657986	0.9826	0.9772	7.258123	20.95707
111	7.85318	2.2654805	0.9948	0.9893	7.258441	20.95455
112	7.85079	2.2658480	0.9948	0.9893	7.258607	20.95970
113	7.84867	2.2669615	0.9949	0.9894	7.258382	20.97225
114	7.84703	2.2681685	1.0041	0.9986	7.258044	20.98545
115	7.84612	2.2691947	1.0042	0.9987	7.257687	20.99638
116	7.84559	2.2682454	1.0041	0.9985	7.258212	20.98709
117	7.84421	2.2659961	0.9980	0.9925	7.259476	20.96514
118	7.84114	2.2651570	0.9949	0.9895	7.260313	20.95849
119	7.83716	2.2669945	0.9858	0.9804	7.260009	20.97949
120	7.83472	2.2685143	0.9919	0.9865	7.259636	20.99634
121	7.83546	2.2695954	0.9858	0.9804	7.259017	21.00685
122	7.83817	2.2679272	0.9858	0.9804	7.259422	20.98833
123	7.83987	2.2656506	0.9828	0.9774	7.260260	20.96425
124	7.84013	2.2657658	0.9919	0.9865	7.260168	20.96526
125	7.83976	2.2674224	0.9950	0.9895	7.259435	20.98226
126	7.83997	2.2687941	1.0103	1.0047	7.258754	20.99602
127	7.84236	2.2678668	1.0164	1.0108	7.258854	20.98519
128	7.85244	2.2629251	1.0195	1.0139	7.259758	20.92912
129	7.87388	2.2649758	1.0103	1.0048	7.255728	20.93705
130	7.88805	2.2727459	0.9889	0.9834	7.250030	21.00716
131	7.88344	2.2700670	0.9707	0.9654	7.251955	20.98284
132	7.86836	2.2686787	0.9736	0.9682	7.254761	20.97783
133	7.85801	2.2670931	0.9951	0.9896	7.256988	20.96798
134	7.85918	2.2652720	1.0226	1.0169	7.257684	20.94884
135	7.87011	2.2494738	1.0379	1.0322	7.263607	20.78252
136	7.88375	2.2471215	1.0318	1.0261	7.262770	20.75065
137	7.90351	2.2485107	1.0135	1.0079	7.259287	20.75297
138	7.94598	2.2544759	0.9858	0.9804	7.250408	20.78801
139	7.97279	2.2595753	0.9678	0.9624	7.244185	20.82354
140	7.97449	2.2601671	0.9739	0.9685	7.243664	20.82849
141	7.95295	2.2617512	0.9889	0.9834	7.245985	20.85729
142	7.93667	2.2592961	1.0073	1.0017	7.249461	20.84218
143	7.93545	2.2540051	1.0226	1.0169	7.252132	20.78950
144	7.92827	2.2534741	1.0347	1.0290	7.253407	20.78839
145	7.92253	2.2548977	1.0287	1.0230	7.253553	20.80618
146	7.93896	2.2574005	1.0225	1.0169	7.250030	20.82168
147	7.94752	2.2614882	1.0012	0.9957	7.246882	20.85786
148	7.94550	2.2644268	0.9708	0.9655	7.245783	20.88873
149	7.93747	2.2658199	0.9677	0.9623	7.246269	20.90759
150	7.91132	2.2678773	0.9769	0.9715	7.249020	20.94400
151	7.88821	2.2691944	1.0043	0.9988	7.251688	20.97114
152	7.88397	2.2607487	1.0380	1.0323	7.256290	20.88826
153	7.89719	2.2565901	1.0379	1.0322	7.256370	20.83834
154	7.90293	2.2553250	1.0227	1.0171	7.256149	20.82215
155	7.93433	2.2600195	1.0014	0.9959	7.249453	20.85088
156	7.96593	2.2638290	0.9893	0.9838	7.243159	20.87052
157	7.97370	2.2671746	0.9983	0.9929	7.240479	20.89964
158	7.96550	2.2676958	1.0075	1.0019	7.241398	20.90979
159	7.95960	2.2636042	1.0045	0.9990	7.244166	20.87202
160	7.96534	2.2605673	1.0013	0.9958	7.244779	20.83796
161	7.96029	2.2619430	0.9891	0.9837	7.244850	20.85485
162	7.96960	2.2661707	0.9891	0.9837	7.241534	20.89196
163	7.97481	2.2684639	0.9985	0.9930	7.239713	20.91199
164	7.96832	2.2691444	1.0198	1.0142	7.240315	20.92272
165	7.95438	2.2665603	1.0197	1.0141	7.243514	20.90496
166	7.95438	2.2630066	1.0229	1.0173	7.245189	20.86909
167	7.95013	2.2622611	0.9985	0.9930	7.246146	20.86411
168	7.96598	2.2656716	0.9863	0.9809	7.242283	20.88908
169	7.98008	2.2682663	0.9802	0.9748	7.239057	20.90686
170	7.98700	2.2706755	0.9831	0.9777	7.236940	20.92703
171	7.97865	2.2714935	0.9985	0.9930	7.237742	20.94026
172	7.96587	2.2706043	1.0046	0.9991	7.239975	20.93892
173	7.96827	2.2688151	1.0137	1.0081	7.240478	20.91943
174	7.97551	2.2679975	1.0198	1.0142	7.239834	20.90686
175	7.97614	2.2689413	1.0229	1.0173	7.239299	20.91600
176	7.97375	2.2703902	1.0230	1.0174	7.238957	20.93205
177	7.97056	2.2712190	1.0017	0.9962	7.239020	20.94233
178	7.96885	2.2720425	0.9894	0.9840	7.238874	20.95166
179	7.96864	2.2740961	0.9832	0.9778	7.237937	20.97252
180	7.96747	2.2756945	0.9956	0.9901	7.237351	20.98935
181	7.95976	2.2750683	1.0047	0.9991	7.238741	20.98764
182	7.94305	2.2751948	1.0170	1.0114	7.241053	20.99892
183	7.92865	2.2738713	1.0201	1.0144	7.243725	20.99419
184	7.92732	2.2719934	1.0140	1.0084	7.244800	20.97601
185	7.92780	2.2708186	1.0049	0.9994	7.245287	20.96385
186	7.93784	2.2724380	1.0016	0.9961	7.243094	20.97420
187	7.95465	2.2753979	0.9957	0.9902	7.239311	20.99403
188	7.96433	2.2771064	0.9927	0.9873	7.237131	21.00548
189	7.97636	2.2769250	0.9987	0.9932	7.235511	20.99644
190	7.98466	2.2754307	0.9896	0.9842	7.235036	20.97640
191	7.99632	2.2747440	0.9927	0.9873	7.233705	20.96250
192	8.00165	2.2768479	0.9927	0.9872	7.231961	20.98053
193	7.99621	2.2784799	1.0080	1.0025	7.231964	21.00024
194	7.97801	2.2784031	1.0141	1.0085	7.234581	21.01037
195	7.95768	2.2770240	1.0202	1.0146	7.238114	21.00863
196	7.95231	2.2745631	1.0141	1.0085	7.240037	20.98700
197	7.95247	2.2732451	1.0020	0.9965	7.240635	20.97360
198	7.96784	2.2747717	0.9867	0.9813	7.237732	20.97981
199	7.99174	2.2775018	0.9838	0.9784	7.233057	20.99306
200	8.00825	2.2789964	0.9928	0.9874	7.230015	20.99825
201	8.00985	2.2792052	1.0050	0.9995	7.229691	20.99939
202	7.99142	2.2783810	1.0112	1.0056	7.232689	21.00211
203	7.98839	2.2760459	1.0142	1.0086	7.234218	20.98037
204	7.99318	2.2754581	1.0112	1.0057	7.233815	20.97157
205	7.98333	2.2766997	1.0204	1.0148	7.234628	20.98999
206	7.97056	2.2782163	1.0113	1.0057	7.235726	21.01295
207	7.96178	2.2786065	1.0082	1.0026	7.236787	21.02216
208	7.95816	2.2782164	1.0051	0.9996	7.237484	21.02039
209	7.96061	2.2785296	0.9870	0.9815	7.236989	21.02209
210	7.96561	2.2804863	0.9747	0.9694	7.235358	21.03885
211	7.96641	2.2816902	0.9901	0.9846	7.234678	21.05053
212	7.95848	2.2812395	1.0022	0.9967	7.236015	21.05073
213	7.94252	2.2811406	1.0114	1.0059	7.238325	21.05932
214	7.92732	2.2802502	1.0205	1.0149	7.240903	21.05946
215	7.92482	2.2763760	1.0146	1.0090	7.243087	21.02180
216	7.93194	2.2741843	1.0085	1.0029	7.243109	20.99538
217	7.97843	2.2753703	0.9811	0.9757	7.235948	20.97952
218	8.03318	2.2777213	0.9749	0.9696	7.227082	20.97048
219	8.06805	2.2797599	0.9842	0.9788	7.221192	20.97018
220	8.06752	2.2805295	1.0055	1.0000	7.220907	20.97824
221	8.03564	2.2802878	1.0147	1.0091	7.225531	20.99487
222	8.01640	2.2764247	1.0206	1.0150	7.230069	20.96743
223	8.01384	2.2748702	1.0147	1.0091	7.231161	20.95329
224	8.00782	2.2736400	0.9995	0.9940	7.232592	20.94449
225	8.03025	2.2755182	0.9842	0.9788	7.228531	20.95003
226	8.05051	2.2770618	0.9781	0.9728	7.224938	20.95349
227	8.06395	2.2792543	0.9935	0.9880	7.222010	20.96754
228	8.06272	2.2803426	1.0088	1.0032	7.221674	20.97922
229	8.05035	2.2795072	1.0209	1.0153	7.223815	20.97820
230	8.03638	2.2756445	1.0149	1.0093	7.227604	20.94763
231	8.03121	2.2743922	1.0088	1.0032	7.228924	20.93810
232	8.03494	2.2746558	0.9966	0.9911	7.228271	20.93854
233	8.05525	2.2763750	0.9877	0.9822	7.224589	20.94374
234	8.06779	2.2787596	0.9907	0.9853	7.221698	20.96026
235	8.06789	2.2799083	1.0060	1.0005	7.221145	20.97176
236	8.06064	2.2791114	1.0089	1.0034	7.222545	20.96807
237	8.05536	2.2766497	1.0120	1.0064	7.224445	20.94643
238	8.05312	2.2758092	1.0059	1.0004	7.225156	20.93930
239	8.04390	2.2773750	0.9998	0.9943	7.225728	20.96058
240	8.03430	2.2800845	0.9969	0.9914	7.225815	20.99362
241	8.02402	2.2811400	0.9999	0.9944	7.226775	21.01042
242	8.01283	2.2808157	0.9999	0.9944	7.228512	21.01385
243	8.00857	2.2792052	1.0031	0.9975	7.229872	21.00016
244	8.01145	2.2790183	0.9940	0.9885	7.229552	20.99655
245	8.01219	2.2811896	0.9970	0.9915	7.228426	21.01800
246	8.00463	2.2816680	1.0092	1.0036	7.229273	21.02736
247	7.98663	2.2814647	1.0184	1.0128	7.231918	21.03610
248	7.97013	2.2797057	1.0183	1.0128	7.235085	21.02824
249	7.96534	2.2772767	1.0155	1.0099	7.236908	21.00659
250	7.96598	2.2762823	0.9788	0.9735	7.237285	20.99618
251	7.99467	2.2784029	0.9727	0.9673	7.232218	21.00040
252	8.02173	2.2810246	0.9728	0.9674	7.227153	21.01063
253	8.03606	2.2821956	1.0003	0.9948	7.224576	21.01384
254	8.01683	2.2826576	1.0186	1.0130	7.227081	21.03002
255	7.98849	2.2800573	1.0277	1.0221	7.232316	21.02078
256	7.98413	2.2761393	1.0308	1.0251	7.234778	20.98385
257	7.97588	2.2738929	1.0096	1.0041	7.237006	20.96613
258	7.99797	2.2740410	0.9973	0.9919	7.233801	20.95442
259	8.03628	2.2772267	0.9791	0.9737	7.226876	20.96365
260	8.06192	2.2785453	0.9821	0.9767	7.222628	20.96161
261	8.06571	2.2802107	0.9945	0.9890	7.221313	20.97612
262	8.05547	2.2811453	1.0065	1.0010	7.222323	20.99165
263	8.04294	2.2808870	1.0189	1.0133	7.224217	20.99653
264	8.03755	2.2785016	1.0250	1.0194	7.226098	20.97572
265	8.04374	2.2764740	1.0281	1.0224	7.226173	20.95159
266	8.04177	2.2764960	1.0220	1.0164	7.226442	20.95299
267	8.03777	2.2769465	1.0098	1.0043	7.226797	20.95993
268	8.04187	2.2781443	0.9916	0.9861	7.225654	20.96955
269	8.04305	2.2810904	0.9825	0.9771	7.224106	20.99853
270	8.04081	2.2825420	0.9947	0.9893	7.223742	21.01450
271	8.03238	2.2825695	1.0069	1.0014	7.224920	21.01981
272	8.01656	2.2818053	1.0131	1.0075	7.227519	21.02159
273	8.00969	2.2800077	1.0100	1.0044	7.229336	21.00758
274	8.01123	2.2792547	1.0101	1.0045	7.229471	20.99906
275	8.00601	2.2803101	1.0163	1.0107	7.229715	21.01283
276	7.99781	2.2821409	1.0102	1.0046	7.230016	21.03622
277	7.98961	2.2828228	1.0163	1.0107	7.230857	21.04802
278	7.98418	2.2808599	1.0040	0.9985	7.232549	21.03147
279	7.98647	2.2792329	0.9890	0.9836	7.232990	21.01368
280	7.98977	2.2810028	0.9921	0.9866	7.231690	21.02956
281	7.98727	2.2835762	0.9981	0.9926	7.230834	21.05703
282	7.97492	2.2834608	1.0103	1.0048	7.232638	21.06328
283	7.94986	2.2833015	1.0195	1.0139	7.236265	21.07674
284	7.93152	2.2801072	1.0227	1.0171	7.240375	21.05549
285	7.92588	2.2783045	1.0044	0.9988	7.242025	21.04066
286	7.92812	2.2787607	0.9831	0.9777	7.241492	21.04393
287	7.95087	2.2810526	0.9831	0.9777	7.237181	21.05342
288	7.96784	2.2826470	1.0044	0.9989	7.234024	21.05932
289	7.95949	2.2821852	1.0288	1.0232	7.235426	21.05967
290	7.93721	2.2809373	1.0258	1.0202	7.239176	21.06045
291	7.93189	2.2775572	1.0167	1.0111	7.241525	21.02949
292	7.92604	2.2757222	1.0014	0.9959	7.243221	21.01446
293	7.93705	2.2763759	0.9863	0.9809	7.241349	21.01447
294	7.96359	2.2787054	0.9832	0.9778	7.236484	21.02208
295	7.97753	2.2807885	0.9924	0.9869	7.233526	21.03474
296	7.97700	2.2815417	1.0077	1.0022	7.233247	21.04266
297	7.96518	2.2809316	1.0231	1.0175	7.235209	21.04359
298	7.95460	2.2778757	1.0261	1.0204	7.238151	21.01908
299	7.95406	2.2768263	1.0170	1.0114	7.238721	21.00880
300	7.95327	2.2770515	1.0080	1.0024	7.238728	21.01156
301	7.96433	2.2785461	1.0048	0.9993	7.236453	21.02002
302	7.97018	2.2807391	1.0111	1.0055	7.234591	21.03865
303	7.96880	2.2808381	1.0142	1.0086	7.234740	21.04047
304	7.96774	2.2783537	1.0112	1.0056	7.236061	21.01603
305	7.96885	2.2768976	0.9930	0.9875	7.236588	21.00066
306	7.97045	2.2790076	0.9806	0.9752	7.235368	21.02101
307	7.97524	2.2808160	0.9899	0.9844	7.233837	21.03640
308	7.97391	2.2807116	1.0082	1.0027	7.234075	21.03613
309	7.95109	2.2805084	1.0265	1.0209	7.237408	21.04778
310	7.92652	2.2797610	1.0418	1.0360	7.241248	21.05498
311	7.92051	2.2776727	1.0419	1.0361	7.243087	21.03748
312	7.91074	2.2765244	1.0236	1.0180	7.245018	21.03175
313	7.91477	2.2759256	0.9931	0.9876	7.244727	21.02328
314	7.94391	2.2767989	0.9749	0.9696	7.240175	21.01463
315	7.97795	2.2781448	0.9719	0.9665	7.234710	21.00781
316	7.99025	2.2796561	0.9841	0.9787	7.232255	21.01569
317	7.98892	2.2802222	1.0116	1.0060	7.232178	21.02219
318	7.97375	2.2800355	1.0359	1.0302	7.234417	21.02939
319	7.95162	2.2780736	1.0390	1.0333	7.238481	21.02286
320	7.94311	2.2770736	1.0330	1.0274	7.240160	21.01787
321	7.93391	2.2769638	1.0149	1.0093	7.241518	21.02228
322	7.93885	2.2778044	0.9996	0.9941	7.240419	21.02781
323	7.94369	2.2782879	0.9966	0.9912	7.239504	21.02979
324	7.94343	2.2794805	0.9997	0.9942	7.238979	21.04200
325	7.93843	2.2802226	1.0119	1.0063	7.239339	21.05250
326	7.93279	2.2801622	1.0240	1.0184	7.240167	21.05527
327	7.93162	2.2785023	1.0180	1.0124	7.241117	21.03920
328	7.93444	2.2777000	1.0149	1.0093	7.241095	21.02940
329	7.93418	2.2775297	1.0090	1.0035	7.241213	21.02784
330	7.94008	2.2785572	1.0060	1.0005	7.239890	21.03468
331	7.94619	2.2802720	0.9968	0.9913	7.238214	21.04834
332	7.94561	2.2801841	1.0121	1.0066	7.238338	21.04780
333	7.93237	2.2801072	1.0336	1.0279	7.240254	21.05497
334	7.91653	2.2788047	1.0335	1.0279	7.243118	21.05132
335	7.91164	2.2776727	1.0366	1.0309	7.244348	21.04282
336	7.90760	2.2770024	1.0031	0.9975	7.245238	21.03847
337	7.91961	2.2779089	0.9819	0.9765	7.243103	21.04043
338	7.93115	2.2789585	0.9758	0.9704	7.240969	21.04411
339	7.93354	2.2795850	0.9882	0.9828	7.240334	21.04900
340	7.92301	2.2790300	1.0156	1.0100	7.242091	21.04971
341	7.89815	2.2788049	1.0369	1.0312	7.245730	21.06238
342	7.88328	2.2773762	1.0339	1.0282	7.248520	21.05687
343	7.88067	2.2766620	1.0248	1.0192	7.249228	21.05121
344	7.87648	2.2767005	1.0066	1.0011	7.249807	21.05413
345	7.88545	2.2775300	0.9974	0.9919	7.248137	21.05713
346	7.89023	2.2787060	1.0128	1.0072	7.246902	21.06615
347	7.88917	2.2792336	1.0190	1.0134	7.246803	21.07213
348	7.88689	2.2784038	1.0251	1.0194	7.247521	21.06510
349	7.88651	2.2768487	1.0066	1.0011	7.248309	21.04959
350	7.88344	2.2770520	0.9946	0.9891	7.248651	21.05351
351	7.88375	2.2780521	0.9947	0.9893	7.248132	21.06344
352	7.88742	2.2793600	1.0068	1.0013	7.246992	21.07446
353	7.88805	2.2792776	1.0130	1.0075	7.246941	21.07324
354	7.88126	2.2794590	1.0223	1.0167	7.247822	21.07917
355	7.87430	2.2793052	1.0192	1.0136	7.248883	21.08180
356	7.87648	2.2788819	1.0192	1.0136	7.248774	21.07621
357	7.87542	2.2790688	1.0253	1.0197	7.248837	21.07874
358	7.86947	2.2796350	1.0254	1.0198	7.249414	21.08805
359	7.86369	2.2800363	1.0254	1.0198	7.250047	21.09560
360	7.85950	2.2797340	1.0133	1.0077	7.250787	21.09507
361	7.85907	2.2793053	0.9859	0.9805	7.251050	21.09100
362	7.86215	2.2797614	0.9768	0.9715	7.250396	21.09376
363	7.86263	2.2806025	0.9800	0.9746	7.249929	21.10199
364	7.85621	2.2801627	0.9982	0.9927	7.251052	21.10140
365	7.84310	2.2795857	1.0257	1.0201	7.253190	21.10346
366	7.83005	2.2793824	1.0258	1.0202	7.255144	21.10927
367	7.82576	2.2785966	1.0350	1.0293	7.256129	21.10389
368	7.82825	2.2780305	1.0350	1.0293	7.256043	21.09665
369	7.82868	2.2773437	1.0290	1.0233	7.256308	21.08943
370	7.84597	2.2772776	1.0077	1.0022	7.253877	21.07835
371	7.87218	2.2780522	0.9864	0.9810	7.249778	21.07041
372	7.88885	2.2783543	0.9712	0.9659	7.247264	21.06343
373	7.89119	2.2787829	0.9712	0.9659	7.246729	21.06637
374	7.88439	2.2796074	0.9957	0.9903	7.247306	21.07879
375	7.87478	2.2795415	1.0170	1.0114	7.248704	21.08391
376	7.86114	2.2792558	1.0384	1.0327	7.250780	21.08923
377	7.84899	2.2779369	1.0566	1.0508	7.253134	21.08319
378	7.84655	2.2771787	1.0507	1.0449	7.253841	21.07698
379	7.84798	2.2765194	1.0264	1.0207	7.253949	21.06945
380	7.87282	2.2765741	0.9898	0.9844	7.250387	21.05506
381	7.90813	2.2775793	0.9778	0.9724	7.244889	21.04400
382	7.92822	2.2772989	0.9716	0.9663	7.242167	21.02910
383	7.93152	2.2780297	0.9962	0.9907	7.241354	21.03450
384	7.92376	2.2785024	1.0144	1.0088	7.242234	21.04393
385	7.90829	2.2782882	1.0359	1.0302	7.244532	21.05105
386	7.89570	2.2767772	1.0388	1.0331	7.247036	21.04334
387	7.89310	2.2764696	1.0421	1.0364	7.247552	21.04179
388	7.89034	2.2765740	1.0267	1.0211	7.247895	21.04451
389	7.89761	2.2768981	1.0176	1.0120	7.246707	21.04342
390	7.90271	2.2772277	1.0086	1.0031	7.245826	21.04369
391	7.90213	2.2779805	1.0117	1.0061	7.245553	21.05165
392	7.89852	2.2780025	1.0148	1.0092	7.246057	21.05405
393	7.89629	2.2775080	1.0211	1.0155	7.246608	21.05038
394	7.89735	2.2771508	1.0149	1.0093	7.246625	21.04613
395	7.89815	2.2773431	1.0149	1.0093	7.246421	21.04760
396	7.89793	2.2774750	1.0180	1.0124	7.246389	21.04906
397	7.89772	2.2779091	1.0150	1.0094	7.246214	21.05358
398	7.89751	2.2789313	1.0242	1.0186	7.245761	21.06405
399	7.89661	2.2790192	1.0333	1.0276	7.245848	21.06548
400	7.89507	2.2784037	1.0273	1.0216	7.246358	21.06018
401	7.89448	2.2774640	1.0274	1.0217	7.246885	21.05102
402	7.89395	2.2773761	1.0214	1.0157	7.247002	21.05045
403	7.89257	2.2783103	1.0183	1.0127	7.246757	21.06074
404	7.89098	2.2788544	1.0092	1.0037	7.246726	21.06720
405	7.88965	2.2789753	1.0031	0.9976	7.246857	21.06923
406	7.88986	2.2792061	1.0093	1.0038	7.246718	21.07144
407	7.89087	2.2796788	1.0185	1.0129	7.246351	21.07561
408	7.89002	2.2795579	1.0307	1.0251	7.246529	21.07489
409	7.88667	2.2791622	1.0277	1.0220	7.247192	21.07290
410	7.88556	2.2779257	1.0370	1.0313	7.247936	21.06106
411	7.88752	2.2771784	1.0248	1.0192	7.248010	21.05232
412	7.89480	2.2772003	1.0096	1.0040	7.246964	21.04817
413	7.90447	2.2781453	1.0096	1.0040	7.245143	21.05192
414	7.90877	2.2788817	1.0098	1.0042	7.244184	21.05678
415	7.91196	2.2789751	1.0128	1.0073	7.243687	21.05580
416	7.91414	2.2789311	1.0128	1.0073	7.243398	21.05405
417	7.91727	2.2785244	1.0221	1.0165	7.243145	21.04805
418	7.92083	2.2781287	1.0190	1.0134	7.242826	21.04191
419	7.92227	2.2781947	1.0221	1.0165	7.242591	21.04171
420	7.92222	2.2787277	1.0343	1.0286	7.242347	21.04713
421	7.92121	2.2793048	1.0376	1.0319	7.242218	21.05357
422	7.91956	2.2785299	1.0315	1.0258	7.242818	21.04673
423	7.91860	2.2770847	1.0071	1.0016	7.243636	21.03270
424	7.91828	2.2771781	0.9858	0.9804	7.243636	21.03384
425	7.92200	2.2787112	0.9766	0.9713	7.242384	21.04711
426	7.92136	2.2787827	1.0102	1.0047	7.242441	21.04820
427	7.90218	2.2780025	1.0348	1.0291	7.245536	21.05184
428	7.88274	2.2785027	1.0408	1.0350	7.248063	21.06859
429	7.87616	2.2777444	1.0470	1.0413	7.249358	21.06488
430	7.87303	2.2765247	1.0318	1.0262	7.250381	21.05442
431	7.86682	2.2760468	1.0044	0.9989	7.251491	21.05333
432	7.87154	2.2760742	0.9952	0.9897	7.250805	21.05076
433	7.89799	2.2766618	0.9955	0.9900	7.246766	21.04081
434	7.92083	2.2778760	1.0015	0.9960	7.242945	21.03936
435	7.92222	2.2786398	1.0169	1.0113	7.242388	21.04624
436	7.91446	2.2794313	1.0352	1.0295	7.243117	21.05891
437	7.90638	2.2784751	1.0413	1.0356	7.244716	21.05409
438	7.90367	2.2770519	1.0352	1.0295	7.245774	21.04133
439	7.90075	2.2763267	1.0262	1.0206	7.246532	21.03575
440	7.89900	2.2756236	1.0139	1.0083	7.247113	21.02970
441	7.90255	2.2758103	1.0018	0.9963	7.246519	21.02945
442	7.90340	2.2765245	1.0019	0.9964	7.246060	21.03616
443	7.90606	2.2775574	1.0081	1.0026	7.245195	21.04501
444	7.90728	2.2776782	1.0203	1.0147	7.244964	21.04550
445	7.90580	2.2785685	1.0296	1.0240	7.244755	21.05539
446	7.90298	2.2790082	1.0357	1.0300	7.244947	21.06153
447	7.90170	2.2774365	1.0388	1.0331	7.245871	21.04640
448	7.90271	2.2764476	1.0326	1.0270	7.246195	21.03579
449	7.90319	2.2753159	1.0175	1.0119	7.246662	21.02406
450	7.91068	2.2752719	1.0054	0.9999	7.245617	21.01912
451	7.92099	2.2759750	0.9993	0.9938	7.243820	21.02005
452	7.92982	2.2771231	1.0024	0.9969	7.242024	21.02635
453	7.93231	2.2775572	1.0208	1.0152	7.241465	21.02923
454	7.93008	2.2785793	1.0269	1.0212	7.241299	21.04090
455	7.92780	2.2789475	1.0330	1.0274	7.241450	21.04600
456	7.92737	2.2779254	1.0361	1.0304	7.241993	21.03592
457	7.92886	2.2764474	1.0333	1.0276	7.242479	21.02009
458	7.92928	2.2762221	1.0271	1.0215	7.242525	21.01756
459	7.92695	2.2758596	1.0119	1.0064	7.243028	21.01530
460	7.93003	2.2759749	0.9968	0.9913	7.242536	21.01462
461	7.93614	2.2767989	0.9937	0.9882	7.241278	21.01928
462	7.93779	2.2779802	1.0182	1.0126	7.240487	21.03022
463	7.93689	2.2797499	1.0304	1.0248	7.239781	21.04864
464	7.93508	2.2801127	1.0304	1.0248	7.239866	21.05340
465	7.92865	2.2783100	1.0307	1.0250	7.241630	21.03904
466	7.92599	2.2767221	1.0154	1.0098	7.242757	21.02459
467	7.92450	2.2766617	1.0001	0.9946	7.242997	21.02488
468	7.92689	2.2771231	0.9881	0.9826	7.242439	21.02811
469	7.93152	2.2787826	1.0003	0.9948	7.240999	21.04210
470	7.93301	2.2805855	1.0247	1.0191	7.239938	21.05942
471	7.92594	2.2810748	1.0400	1.0343	7.240711	21.06862
472	7.91244	2.2797831	1.0431	1.0374	7.243237	21.06368
473	7.90787	2.2777442	1.0339	1.0283	7.244850	21.04581
474	7.90123	2.2771014	1.0280	1.0223	7.246098	21.04330
475	7.90266	2.2770134	1.0035	0.9980	7.245935	21.04155
476	7.91068	2.2783266	1.0067	1.0012	7.244174	21.05001
477	7.91701	2.2791839	1.0130	1.0074	7.242871	21.05488
478	7.91738	2.2803107	1.0220	1.0164	7.242286	21.06605
479	7.91563	2.2803217	1.0282	1.0225	7.242530	21.06721
480	7.91414	2.2789037	1.0222	1.0165	7.243411	21.05377
481	7.91531	2.2779529	1.0222	1.0166	7.243694	21.04345
482	7.91547	2.2776727	1.0223	1.0167	7.243804	21.04052
483	7.91270	2.2772991	1.0192	1.0136	7.244373	21.03840
484	7.91074	2.2771288	1.0225	1.0169	7.244733	21.03786
485	7.91345	2.2775243	1.0163	1.0107	7.244161	21.04024
486	7.91743	2.2781013	1.0224	1.0168	7.243322	21.04367
487	7.92014	2.2780298	1.0255	1.0199	7.242971	21.04132
488	7.92179	2.2768265	1.0195	1.0138	7.243305	21.02817
489	7.92535	2.2758706	1.0136	1.0080	7.243250	21.01637
490	7.92923	2.2757717	1.0044	0.9989	7.242745	21.01304
491	7.93465	2.2763979	0.9982	0.9927	7.241679	21.01612
492	7.94082	2.2779253	1.0136	1.0081	7.240083	21.02785
493	7.94428	2.2798213	1.0320	1.0263	7.238698	21.04493
494	7.94236	2.2806514	1.0443	1.0386	7.238579	21.05446
495	7.93848	2.2783539	1.0474	1.0416	7.240213	21.03357
496	7.93747	2.2765901	1.0291	1.0235	7.241188	21.01636
497	7.93588	2.2756727	1.0018	0.9963	7.241847	21.00806
498	7.94385	2.2756672	0.9925	0.9871	7.240717	21.00322
499	7.95816	2.2776284	1.0019	0.9963	7.237761	21.01445
500	7.96492	2.2863048	1.0840	1.0780	7.232717	21.09800
501	7.95332	2.3073892	1.2366	1.2298	7.224428	21.31811
502	7.92684	2.3119225	1.4226	1.4148	7.226031	21.38007
503	7.90702	2.3164313	1.6543	1.6452	7.226704	21.43778
504	7.89368	2.3254355	1.9073	1.8968	7.224334	21.53718
505	7.89406	2.3371569	2.1542	2.1424	7.218747	21.65579
506	7.90096	2.3428920	2.4163	2.4030	7.215071	21.70964
507	7.90728	2.3426424	2.6784	2.6636	7.214305	21.70310
508	7.91206	2.3470440	2.9529	2.9367	7.211560	21.74471
509	7.91865	2.3512207	3.2242	3.2064	7.208669	21.78292
510	7.92551	2.3531877	3.4803	3.4611	7.206785	21.79853
511	7.93067	2.3532878	3.7548	3.7341	7.206019	21.79625
512	7.93311	2.3557614	4.0353	4.0131	7.204515	21.81973
513	7.93689	2.3580023	4.2973	4.2736	7.202935	21.84003
514	7.93965	2.3575630	4.5594	4.5343	7.202759	21.83377
515	7.93928	2.3545552	4.8186	4.7921	7.204232	21.80340
516	7.94268	2.3722046	5.0716	5.0437	7.195446	21.98031
517	7.96667	2.3868050	5.3246	5.2953	7.185237	22.11338
518	7.99786	2.4050872	5.5899	5.5591	7.172324	22.27917
519	8.03755	2.4180635	5.8489	5.8167	7.160760	22.38555
520	8.07467	2.4350737	6.1049	6.0713	7.147698	22.53434
521	8.11769	2.4687682	6.3550	6.3199	7.126096	22.84845
522	8.18012	2.5806202	6.6293	6.5928	7.065713	23.94457
523	8.27492	2.6446533	6.9099	6.8718	7.023593	24.53194
524	8.36478	2.6642950	7.1841	7.1445	7.002812	24.66922
525	8.43298	2.6764451	7.4433	7.4023	6.988379	24.74498
526	8.47801	2.6966101	7.7054	7.6629	6.973355	24.91820
527	8.50389	2.7227298	7.9616	7.9177	6.958145	25.16531
528	8.50847	2.7495233	8.2297	8.1844	6.945394	25.43455
529	8.49984	2.7773743	8.4950	8.4481	6.933854	25.72447
530	8.49278	2.7992632	8.7481	8.6998	6.924818	25.95288
531	8.49176	2.8223662	9.0163	8.9665	6.914465	26.18955
532	8.50146	2.8536365	9.2725	9.2213	6.899065	26.50204
533	8.51958	2.8803881	9.5284	9.4758	6.884685	26.76216
534	8.53604	2.8986354	9.7968	9.7427	6.874387	26.93648
535	8.54490	2.9138994	10.0559	10.0004	6.866395	27.08604
536	8.54840	2.9256751	10.3119	10.2550	6.860647	27.20398
537	8.54840	2.9401908	10.5771	10.5187	6.854097	27.35279
538	8.54436	2.9522293	10.8422	10.7824	6.849164	27.47941
539	8.53944	2.9567916	11.1014	11.0401	6.847712	27.52999
540	8.53604	2.9611330	11.3575	11.2948	6.846173	27.57715
541	8.53291	2.9738387	11.6166	11.5525	6.840823	27.71010
542	8.52476	2.9958102	11.8757	11.8101	6.831901	27.94249
543	8.51219	3.0078364	12.1286	12.0617	6.828003	28.07623
544	8.50044	3.0142972	12.3970	12.3286	6.826517	28.15209
545	8.49127	3.0197896	12.6591	12.5892	6.825151	28.21595
546	8.48410	3.0248292	12.9305	12.8590	6.823747	28.27358
547	8.47871	3.0281541	13.2048	13.1319	6.822901	28.31212
548	8.47494	3.0313890	13.4640	13.3896	6.821899	28.34844
549	8.47170	3.0336683	13.7200	13.6442	6.821264	28.37448
550	8.46896	3.0370517	13.9883	13.9110	6.820070	28.41153
551	8.46653	3.0410222	14.2443	14.1656	6.818571	28.45441
552	8.46055	3.0510454	14.5036	14.4234	6.814761	28.56276
553	8.44859	3.0623166	14.7626	14.6810	6.811104	28.68896
554	8.43276	3.0740384	15.0217	14.9387	6.807704	28.82314
555	8.41710	3.0816682	15.2746	15.1902	6.806132	28.91494
556	8.40258	3.0858509	15.5278	15.4419	6.805983	28.97014
557	8.39128	3.0900174	15.7931	15.7057	6.805452	29.02256
558	8.38391	3.0933938	16.0520	15.9632	6.804807	29.06358
559	8.37988	3.0954264	16.3264	16.2361	6.804372	29.08790
560	8.37730	3.0969191	16.5795	16.4877	6.804008	29.10543
561	8.37488	3.0986516	16.8477	16.7545	6.803516	29.12532
562	8.37074	3.1011710	17.1098	17.0151	6.802871	29.15481
563	8.36413	3.1032180	17.4025	17.3062	6.802738	29.18144
564	8.35726	3.1038390	17.6585	17.5607	6.803283	29.19349
565	8.35188	3.1053086	17.9238	17.8246	6.803263	29.21311
566	8.34775	3.1062004	18.1981	18.0974	6.803358	29.22570
567	8.34442	3.1067601	18.4451	18.3430	6.803506	29.23419
568	8.34189	3.1074860	18.7011	18.5975	6.803482	29.24373
569	8.33980	3.1079720	18.9602	18.8552	6.803517	29.25041
570	8.33835	3.1083534	19.2162	19.1097	6.803521	29.25548
571	8.33727	3.1087656	19.4693	19.3614	6.803467	29.26056
572	8.33652	3.1091779	19.7376	19.6282	6.803374	29.26536
573	8.33588	3.1100639	20.0028	19.8919	6.803053	29.27500
574	8.33588	3.1109192	20.2526	20.1403	6.802668	29.28380
575	8.33609	3.1121377	20.5056	20.3920	6.802092	29.29620
576	8.33695	3.1145628	20.7495	20.6344	6.800891	29.32062
577	8.33792	3.1172903	21.0026	20.8861	6.799539	29.34810
578	8.32621	3.1197171	21.2587	21.1408	6.799837	29.38302
579	8.29728	3.1222371	21.5209	21.4015	6.802148	29.43333
580	8.26039	3.1288331	21.7769	21.6561	6.803547	29.53294
581	8.21534	3.1360887	22.0329	21.9107	6.805611	29.64654
582	8.16082	3.1418066	22.2860	22.1623	6.809499	29.75237
583	8.10333	3.1456683	22.5450	22.4199	6.814590	29.84155
584	8.05248	3.1474610	22.8013	22.6748	6.819841	29.90359
585	8.00798	3.1490625	23.0540	22.9261	6.824424	29.95834
586	7.96896	3.1506394	23.3072	23.1778	6.828366	30.00825
587	7.93816	3.1526495	23.5692	23.4384	6.831122	30.05576
588	7.90946	3.1549941	23.8255	23.6932	6.833472	30.10508
589	7.87935	3.1557430	24.0906	23.9569	6.836734	30.13882
590	7.84719	3.1559043	24.3436	24.2084	6.840516	30.16818
591	7.81505	3.1562264	24.6029	24.4663	6.844223	30.19925
592	7.78437	3.1568888	24.8465	24.7086	6.847598	30.23272
593	7.75123	3.1573347	25.0966	24.9573	6.851371	30.26608
594	7.71985	3.1579663	25.3587	25.2179	6.854847	30.29992
595	7.68433	3.1588208	25.6088	25.4665	6.858719	30.33979
596	7.64140	3.1595950	25.8739	25.7302	6.863522	30.38535
597	7.58665	3.1606789	26.1148	25.9697	6.869604	30.44464
598	7.52682	3.1616082	26.3678	26.2213	6.876378	30.50691
599	7.47044	3.1622465	26.6208	26.4728	6.882881	30.56319
600	7.42258	3.1626681	26.8859	26.7365	6.888464	30.60977
601	7.38480	3.1625757	27.1602	27.0093	6.893080	30.64203
602	7.35461	3.1628486	27.4104	27.2580	6.896607	30.67156
603	7.33082	3.1627250	27.6816	27.5277	6.899551	30.69119
604	7.30747	3.1622176	27.9345	27.7792	6.902627	30.70633
605	7.27827	3.1612398	28.1907	28.0339	6.906642	30.72162
606	7.24778	3.1607140	28.4437	28.2855	6.910598	30.74294
607	7.21873	3.1604111	28.7028	28.5431	6.914276	30.76540
608	7.19377	3.1603804	28.9620	28.8009	6.917328	30.78718
609	7.17430	3.1604426	29.2240	29.0614	6.919669	30.80509
610	7.15907	3.1607338	29.4833	29.3192	6.921385	30.82171
611	7.14561	3.1609569	29.7300	29.5645	6.922918	30.83602
612	7.13482	3.1612542	29.9678	29.8010	6.924091	30.84876
613	7.12622	3.1614030	30.2241	30.0559	6.925071	30.85794
614	7.12054	3.1617064	30.4710	30.3013	6.925619	30.86619
615	7.11517	3.1612237	30.7299	30.5589	6.926512	30.86566
616	7.10710	3.1608338	30.9890	30.8164	6.927689	30.86855
617	7.09866	3.1608340	31.2421	31.0682	6.928722	30.87599
618	7.09121	3.1610756	31.5012	31.3257	6.929516	30.88515
619	7.08330	3.1611376	31.7541	31.5772	6.930455	30.89279
620	7.07617	3.1611378	32.0194	31.8410	6.931329	30.89907
621	7.06779	3.1613113	32.2816	32.1018	6.932271	30.90833
622	7.05613	3.1614663	32.5467	32.3653	6.933621	30.92034
623	7.04224	3.1614665	32.8119	32.6290	6.935319	30.93269
624	7.02862	3.1613491	33.0710	32.8867	6.937042	30.94353
625	7.01609	3.1613803	33.3269	33.1411	6.938560	30.95501
626	7.00206	3.1613433	33.5861	33.3989	6.940295	30.96710
627	6.98725	3.1614364	33.8576	33.6688	6.942062	30.98130
628	6.97261	3.1613809	34.1196	33.9294	6.943882	30.99376
629	6.95958	3.1615607	34.3758	34.1841	6.945390	31.00733
630	6.94868	3.1614680	34.6378	34.4446	6.946772	31.01603
631	6.93866	3.1613134	34.8970	34.7023	6.948076	31.02326
632	6.92652	3.1612579	35.1622	34.9660	6.949592	31.03348
633	6.91273	3.1611962	35.4211	35.2235	6.951314	31.04514
634	6.89977	3.1611407	35.6864	35.4872	6.952931	31.05612
635	6.88676	3.1613514	35.9486	35.7480	6.954424	31.07004
636	6.87236	3.1612588	36.2168	36.0147	6.956237	31.08193
637	6.85626	3.1611847	36.4789	36.2753	6.958250	31.09558
638	6.84042	3.1608074	36.7961	36.5907	6.960382	31.10566
639	6.82567	3.1608695	37.0764	36.8695	6.962163	31.11957
640	6.81124	3.1611731	37.3295	37.1210	6.963787	31.13585
641	6.79593	3.1610495	37.5945	37.3845	6.965729	31.14826
642	6.78197	3.1610559	37.8658	37.6544	6.967443	31.16088
643	6.76931	3.1609880	38.1250	37.9121	6.969034	31.17152
644	6.75676	3.1611987	38.3841	38.1697	6.970475	31.18511
645	6.74328	3.1610504	38.6340	38.4182	6.972208	31.19563
646	6.72723	3.1607535	38.8994	38.6820	6.974331	31.20687
647	6.71020	3.1605494	39.1675	38.9487	6.976529	31.22002
648	6.69091	3.1604816	39.4297	39.2094	6.978938	31.23674
649	6.67049	3.1605995	39.6887	39.4669	6.981394	31.25653
650	6.65307	3.1608722	39.9479	39.7246	6.983406	31.27530
651	6.64035	3.1606928	40.2070	39.9823	6.985066	31.28484
652	6.62979	3.1607426	40.4630	40.2367	6.986345	31.29491
653	6.61723	3.1605694	40.7312	40.5035	6.987983	31.30438
654	6.60493	3.1604520	41.0026	40.7733	6.989561	31.31422
655	6.59443	3.1604832	41.2707	41.0399	6.990844	31.32405
656	6.58563	3.1604833	41.5360	41.3036	6.991933	31.33198
657	6.57828	3.1604587	41.8104	41.5765	6.992857	31.33832
658	6.57205	3.1604836	42.0694	41.8340	6.993617	31.34418
659	6.56691	3.1604219	42.3376	42.1007	6.994287	31.34809
660	6.56136	3.1603911	42.6060	42.3676	6.994992	31.35272
661	6.55617	3.1603293	42.8772	42.6372	6.995669	31.35667
662	6.55134	3.1603975	43.1545	42.9129	6.996236	31.36172
663	6.54630	3.1603915	43.4136	43.1706	6.996865	31.36616
664	6.54096	3.1605154	43.6696	43.4251	6.997468	31.37231
665	6.53633	3.1604536	43.9134	43.6676	6.998074	31.37576
666	6.53351	3.1606332	44.1604	43.9131	6.998338	31.38021
667	6.53196	3.1604848	44.4196	44.1708	6.998607	31.37987
668	6.53047	3.1604601	44.6726	44.4224	6.998809	31.38085
669	6.52904	3.1603302	44.9377	44.6860	6.999057	31.38062
670	6.52739	3.1602746	45.1967	44.9435	6.999293	31.38140
671	6.52647	3.1603056	45.4407	45.1860	6.999397	31.38248
672	6.52565	3.1603924	45.6937	45.4377	6.999460	31.38407
673	6.52462	3.1604915	45.9406	45.6832	6.999542	31.38598
674	6.52313	3.1604544	46.1906	45.9317	6.999750	31.38683
675	6.52149	3.1602750	46.4405	46.1802	7.000048	31.38625
676	6.52030	3.1604237	46.6873	46.4255	7.000124	31.38885
677	6.51938	3.1603061	46.9313	46.6682	7.000302	31.38830
678	6.51784	3.1601762	47.1812	46.9167	7.000563	31.38817
679	6.51625	3.1601516	47.4342	47.1682	7.000777	31.38924
680	6.51291	3.1599722	47.6811	47.4137	7.001284	31.39022
681	6.50598	3.1598238	47.9219	47.6531	7.002219	31.39485
682	6.49515	3.1598549	48.1871	47.9168	7.003546	31.40502
683	6.48339	3.1596694	48.4279	48.1562	7.005095	31.41368
684	6.47231	3.1595829	48.6810	48.4078	7.006513	31.42280
685	6.46041	3.1593417	48.9247	48.6501	7.008109	31.43099
686	6.44662	3.1594039	49.1686	48.8927	7.009787	31.44426
687	6.43319	3.1594660	49.4004	49.1232	7.011421	31.45721
688	6.41971	3.1596023	49.6045	49.3261	7.013023	31.47105
689	6.40557	3.1595221	49.7996	49.5200	7.014816	31.48312
690	6.39170	3.1606983	49.9521	49.6717	7.015942	31.50884
691	6.38166	3.1647294	49.9948	49.7141	7.015149	31.56260
692	6.38811	3.1647293	49.9644	49.6839	7.014351	31.55664
693	6.41751	3.1658191	49.9371	49.6568	7.010169	31.54148
694	6.44016	3.1672065	49.9035	49.6233	7.006673	31.53586
695	6.45252	3.1678693	49.8639	49.5839	7.004815	31.53176
696	6.46016	3.1675037	49.8426	49.5628	7.004056	31.52069
697	6.46559	3.1673239	49.8154	49.5358	7.003475	31.51370
698	6.46405	3.1672062	49.7942	49.5147	7.003724	31.51383
699	6.45257	3.1674913	49.7665	49.4872	7.004996	31.52760
700	6.43821	3.1674729	49.7363	49.4571	7.006776	31.54067
701	6.42397	3.1672314	49.7089	49.4299	7.008655	31.55119
702	6.41111	3.1670518	49.6724	49.3936	7.010332	31.56113
703	6.39917	3.1668723	49.6421	49.3634	7.011896	31.57020
704	6.39052	3.1671140	49.6117	49.3333	7.012842	31.58090
705	6.38433	3.1674610	49.5782	49.2999	7.013432	31.59048
706	6.37890	3.1676283	49.5478	49.2697	7.014017	31.59737
707	6.37388	3.1676284	49.5296	49.2516	7.014636	31.60203
708	6.36958	3.1675355	49.5051	49.2272	7.015214	31.60500
709	6.36590	3.1677152	49.4901	49.2123	7.015578	31.61041
710	6.36344	3.1679568	49.4658	49.1882	7.015759	31.61537
711	6.36181	3.1684773	49.4414	49.1639	7.015697	31.62265
712	6.36094	3.1689854	49.4234	49.1460	7.015547	31.62908
713	6.36068	3.1693448	49.4051	49.1279	7.015397	31.63330
714	6.36094	3.1697972	49.3806	49.1035	7.015136	31.63807
715	6.36114	3.1700698	49.3504	49.0734	7.014972	31.64091
716	6.36119	3.1708012	49.3199	49.0431	7.014596	31.64896
717	6.36170	3.1738449	49.2652	48.9887	7.012993	31.68214
718	6.36749	3.1739378	49.1525	48.8766	7.012230	31.67785
719	6.40517	3.1730632	49.0123	48.7373	7.008020	31.63327
720	6.45067	3.1728519	48.8569	48.5828	7.002514	31.58885
721	6.48658	3.1729382	48.6893	48.4161	6.998045	31.55667
722	6.50865	3.1734525	48.5127	48.2405	6.995067	31.54203
723	6.52046	3.1739918	48.3421	48.0709	6.993340	31.53714
724	6.52750	3.1743575	48.1684	47.8982	6.992288	31.53475
725	6.53366	3.1747542	47.9948	47.7256	6.991328	31.53350
726	6.53921	3.1750827	47.8180	47.5498	6.990477	31.53208
727	6.54594	3.1750578	47.6323	47.3652	6.989659	31.52568
728	6.55329	3.1744500	47.4465	47.1804	6.989056	31.51231
729	6.55596	3.1738299	47.2576	46.9926	6.989033	31.50312
730	6.56146	3.1740592	47.0687	46.8048	6.988239	31.50066
731	6.56825	3.1742699	46.8827	46.6199	6.987296	31.49681
732	6.57339	3.1745674	46.6848	46.4231	6.986511	31.49544
733	6.58018	3.1743564	46.4929	46.2323	6.985779	31.48696
734	6.58851	3.1742695	46.2949	46.0354	6.984795	31.47843
735	6.59350	3.1744678	46.1060	45.8476	6.984079	31.47610
736	6.59638	3.1747219	45.9171	45.6597	6.983594	31.47633
737	6.60071	3.1747528	45.7344	45.4781	6.983044	31.47278
738	6.60518	3.1744179	45.5455	45.2903	6.982658	31.46507
739	6.60987	3.1741760	45.3505	45.0964	6.982200	31.45820
740	6.61460	3.1739340	45.1648	44.9118	6.981735	31.45128
741	6.61620	3.1738968	44.9820	44.7300	6.981554	31.44949
742	6.61954	3.1740827	44.8113	44.5603	6.981047	31.44854
743	6.62377	3.1742996	44.6499	44.3998	6.980418	31.44711
744	6.62516	3.1746592	44.4975	44.2483	6.980065	31.44985
745	6.62593	3.1750250	44.3270	44.0787	6.979784	31.45323
746	6.62768	3.1749939	44.1716	43.9242	6.979582	31.45135
747	6.62938	3.1752047	44.0072	43.7608	6.979265	31.45218
748	6.63149	3.1767055	43.8700	43.6244	6.978255	31.46676
749	6.63329	3.1771086	43.7604	43.5154	6.977831	31.46957
750	6.63345	3.1768046	43.6600	43.4155	6.977962	31.46615
751	6.62871	3.1764139	43.5837	43.3397	6.978735	31.46625
752	6.61445	3.1759613	43.5075	43.2639	6.980708	31.47443
753	6.60210	3.1757815	43.4315	43.1884	6.982312	31.48386
754	6.59546	3.1734501	43.3677	43.1249	6.984289	31.46441
755	6.58558	3.1681076	43.3463	43.1036	6.988169	31.41486
756	6.57411	3.1668686	43.3618	43.1190	6.990199	31.41178
757	6.56691	3.1662058	43.3740	43.1312	6.991417	31.41111
758	6.56043	3.1659024	43.3892	43.1463	6.992366	31.41372
759	6.55483	3.1660263	43.4076	43.1646	6.992994	31.42023
760	6.55057	3.1663423	43.4319	43.1888	6.993362	31.42761
761	6.54820	3.1667202	43.4441	43.2009	6.993464	31.43393
762	6.54733	3.1671105	43.4596	43.2163	6.993376	31.43901
763	6.54738	3.1678664	43.4689	43.2255	6.992992	31.44727
764	6.54800	3.1688268	43.4778	43.2344	6.992436	31.45725
765	6.54985	3.1706115	43.4901	43.2466	6.991315	31.47515
766	6.55308	3.1726508	43.5025	43.2590	6.989897	31.49457
767	6.55478	3.1735125	43.5240	43.2803	6.989258	31.50247
768	6.55293	3.1739342	43.5420	43.2982	6.989275	31.50880
769	6.55329	3.1745418	43.5484	43.3046	6.988927	31.51514
770	6.55853	3.1747526	43.5667	43.3227	6.988178	31.51262
771	6.56378	3.1749634	43.5912	43.3471	6.987429	31.51009
772	6.56645	3.1751370	43.6156	43.3714	6.987014	31.50952
773	6.56825	3.1756889	43.6401	43.3957	6.986518	31.51392
774	6.57118	3.1760796	43.6645	43.4200	6.985963	31.51550
775	6.57514	3.1763524	43.6768	43.4322	6.985341	31.51484
776	6.57853	3.1766563	43.6951	43.4504	6.984773	31.51504
777	6.58049	3.1769912	43.7197	43.4749	6.984366	31.51691
778	6.58213	3.1770533	43.7530	43.5081	6.984134	31.51605
779	6.58419	3.1772952	43.7745	43.5294	6.983761	31.51680
780	6.58676	3.1772641	43.7988	43.5536	6.983461	31.51408
781	6.58846	3.1777790	43.8296	43.5842	6.982997	31.51816
782	6.59067	3.1779899	43.8569	43.6114	6.982620	31.51842
783	6.59242	3.1781077	43.8845	43.6388	6.982348	31.51809
784	6.59417	3.1782318	43.9059	43.6601	6.982072	31.51783
785	6.59623	3.1783992	43.9424	43.6964	6.981736	31.51776
786	6.59839	3.1784427	43.9701	43.7238	6.981450	31.51623
787	6.60143	3.1784426	43.9975	43.7511	6.981078	31.51342
788	6.60621	3.1786225	44.0220	43.7755	6.980402	31.51098
789	6.61095	3.1787776	44.0586	43.8119	6.979745	31.50830
790	6.61512	3.1788644	44.0861	43.8393	6.979191	31.50540
791	6.61923	3.1791063	44.1167	43.8696	6.978567	31.50425
792	6.62140	3.1790070	44.1472	43.8999	6.978352	31.50116
793	6.62474	3.1789574	44.1686	43.9213	6.977967	31.49752
794	6.62886	3.1789263	44.1932	43.9457	6.977478	31.49338
795	6.63298	3.1785913	44.2177	43.9701	6.977140	31.48590
796	6.63993	3.1786532	44.2328	43.9851	6.976258	31.48018
797	6.64694	3.1790192	44.2572	44.0094	6.975218	31.47774
798	6.65096	3.1792611	44.2818	44.0338	6.974606	31.47669
799	6.65359	3.1794100	44.3033	44.0552	6.974210	31.47589
800	6.65570	3.1791370	44.3245	44.0762	6.974088	31.47095
801	6.65982	3.1787461	44.3428	44.0945	6.973778	31.46287
802	6.66580	3.1783180	44.3552	44.1068	6.973259	31.45268
803	6.67245	3.1780760	44.3704	44.1219	6.972565	31.44392
804	6.67863	3.1785908	44.3949	44.1462	6.971552	31.44387
805	6.68250	3.1786839	44.4224	44.1736	6.971033	31.44133
806	6.68503	3.1785350	44.4377	44.1889	6.970798	31.43737
807	6.68848	3.1780759	44.4530	44.2041	6.970604	31.42917
808	6.69250	3.1775362	44.4654	44.2163	6.970379	31.41957
809	6.69678	3.1778959	44.4775	44.2284	6.969677	31.41957
810	6.69972	3.1772322	44.4929	44.2437	6.969647	31.40961
811	6.70168	3.1770212	44.5020	44.2528	6.969512	31.40550
812	6.70426	3.1768972	44.5143	44.2650	6.969258	31.40177
813	6.70648	3.1766242	44.5176	44.2683	6.969122	31.39675
814	6.70757	3.1764754	44.5204	44.2711	6.969063	31.39413
815	6.70824	3.1762645	44.5236	44.2743	6.969086	31.39121
816	6.70855	3.1761095	44.5208	44.2714	6.969125	31.38923
817	6.70746	3.1761405	44.5146	44.2653	6.969242	31.39056
818	6.70545	3.1761901	44.5238	44.2745	6.969464	31.39294
819	6.70416	3.1763514	44.5177	44.2684	6.969541	31.39589
820	6.70390	3.1763824	44.5118	44.2625	6.969558	31.39647
821	6.70401	3.1764754	44.5089	44.2596	6.969499	31.39739
822	6.70395	3.1764444	44.4907	44.2416	6.969520	31.39711
823	6.70380	3.1765064	44.4725	44.2234	6.969508	31.39794
824	6.70385	3.1767173	44.4663	44.2172	6.969397	31.40020
825	6.70426	3.1769592	44.4541	44.2051	6.969226	31.40248
826	6.70483	3.1772941	44.4422	44.1933	6.968990	31.40563
827	6.70555	3.1775050	44.4269	44.1781	6.968797	31.40728
828	6.70602	3.1776228	44.4118	44.1631	6.968681	31.40815
829	6.70643	3.1777159	44.3998	44.1511	6.968584	31.40880
830	6.70695	3.1777779	44.3784	44.1299	6.968490	31.40901
831	6.70715	3.1779516	44.3603	44.1119	6.968378	31.41073
832	6.70751	3.1781377	44.3450	44.0967	6.968241	31.41244
833	6.70788	3.1782617	44.3267	44.0785	6.968135	31.41348
834	6.70824	3.1783486	44.3087	44.0605	6.968048	31.41411
835	6.70870	3.1782617	44.2843	44.0363	6.968033	31.41274
836	6.70901	3.1778647	44.2538	44.0060	6.968192	31.40813
837	6.70870	3.1777468	44.2265	43.9788	6.968287	31.40714
838	6.70793	3.1779515	44.1932	43.9457	6.968280	31.41010
839	6.70736	3.1783175	44.1748	43.9274	6.968167	31.41463
840	6.70746	3.1786835	44.1508	43.9035	6.967973	31.41855
841	6.70782	3.1788324	44.1292	43.8821	6.967854	31.41986
842	6.70767	3.1788944	44.1019	43.8550	6.967842	31.42070
843	6.70751	3.1789875	44.0745	43.8277	6.967814	31.42187
844	6.70757	3.1790495	44.0442	43.7975	6.967776	31.42251
845	6.70788	3.1791302	44.0138	43.7674	6.967698	31.42313
846	6.70808	3.1791053	43.9894	43.7431	6.967684	31.42268
847	6.70824	3.1789875	43.9591	43.7130	6.967723	31.42126
848	6.70813	3.1788944	43.9287	43.6827	6.967781	31.42035
849	6.70813	3.1788323	43.9013	43.6555	6.967812	31.41968
850	6.70808	3.1789564	43.8588	43.6132	6.967756	31.42111
851	6.70829	3.1778956	43.7949	43.5497	6.968255	31.40934
852	6.71066	3.1767046	43.7095	43.4648	6.968554	31.39418
853	6.71747	3.1760223	43.5908	43.3468	6.968056	31.38053
854	6.71680	3.1757493	43.4689	43.2255	6.968271	31.37822
855	6.70849	3.1755633	43.3288	43.0863	6.969377	31.38385
856	6.69905	3.1754456	43.1794	42.9377	6.970588	31.39128
857	6.69137	3.1752347	43.0058	42.7651	6.971630	31.39609
858	6.68472	3.1743046	42.8109	42.5713	6.972903	31.39210
859	6.68044	3.1733312	42.5948	42.3564	6.973906	31.38546
860	6.67642	3.1731452	42.3875	42.1503	6.974487	31.38720
861	6.66714	3.1730894	42.1772	41.9413	6.975648	31.39519
862	6.65925	3.1731142	41.9701	41.7353	6.976598	31.40279
863	6.65256	3.1730274	41.7538	41.5203	6.977458	31.40808
864	6.64699	3.1728724	41.5404	41.3080	6.978213	31.41159
865	6.64287	3.1725748	41.3179	41.0869	6.978862	31.41221
866	6.63921	3.1724818	41.0957	40.8659	6.979353	31.41465
867	6.63757	3.1736287	40.8703	40.6417	6.978979	31.42884
868	6.63921	3.1744471	40.6541	40.4267	6.978365	31.43640
869	6.63921	3.1745400	40.4376	40.2115	6.978314	31.43752
870	6.63793	3.1746268	40.2121	39.9873	6.978424	31.43975
871	6.63736	3.1745957	39.9928	39.7692	6.978504	31.44004
872	6.63715	3.1739942	39.7641	39.5419	6.978824	31.43374
873	6.63746	3.1737523	39.5358	39.3148	6.978902	31.43091
874	6.63844	3.1735104	39.3224	39.1027	6.978898	31.42746
875	6.64194	3.1732375	39.1091	38.8906	6.978599	31.42135
876	6.64658	3.1727228	38.8929	38.6755	6.978282	31.41156
877	6.65060	3.1731257	38.6797	38.4636	6.977585	31.41238
878	6.65266	3.1736278	38.4695	38.2546	6.977078	31.41609
879	6.65426	3.1742974	38.2654	38.0516	6.976544	31.42206
880	6.65585	3.1746879	38.0793	37.8666	6.976150	31.42496
881	6.65606	3.1748057	37.9028	37.6912	6.976063	31.42614
882	6.65524	3.1750227	37.7292	37.5185	6.976052	31.42936
883	6.65575	3.1751032	37.5373	37.3277	6.975945	31.42986
884	6.65580	3.1752334	37.3423	37.1338	6.975870	31.43133
885	6.65400	3.1751713	37.1595	36.9520	6.976118	31.43239
886	6.65250	3.1747806	36.9766	36.7702	6.976491	31.42956
887	6.65163	3.1736893	36.7878	36.5825	6.977138	31.41849
888	6.65286	3.1730258	36.5958	36.3915	6.977312	31.41018
889	6.65426	3.1721021	36.3976	36.1945	6.977597	31.39887
890	6.65735	3.1722694	36.2120	36.0099	6.977131	31.39796
891	6.66049	3.1717548	36.0109	35.8099	6.976997	31.38953
892	6.66374	3.1710915	35.8098	35.6100	6.976924	31.37938
893	6.66683	3.1697031	35.6210	35.4223	6.977232	31.36143
894	6.66899	3.1687363	35.4381	35.2404	6.977443	31.34895
895	6.67157	3.1680856	35.2491	35.0525	6.977446	31.33955
896	6.67657	3.1686432	35.0634	34.8678	6.976551	31.34117
897	6.68095	3.1685254	34.8838	34.6892	6.976069	31.33595
898	6.68539	3.1651490	34.7131	34.5195	6.977198	31.29502
899	6.69333	3.1639721	34.5607	34.3680	6.976805	31.27496
900	6.70638	3.1629193	34.4084	34.2166	6.975722	31.25161
901	6.72356	3.1622999	34.2622	34.0712	6.973917	31.22925
902	6.73853	3.1619839	34.1189	33.9287	6.972234	31.21223
903	6.75356	3.1608693	33.9941	33.8046	6.970940	31.18644
904	6.76921	3.1607515	33.8693	33.6804	6.969075	31.17099
905	6.78141	3.1605347	33.7351	33.5470	6.967684	31.15761
906	6.79092	3.1608007	33.6011	33.4138	6.966384	31.15194
907	6.79934	3.1607758	33.4609	33.2744	6.965360	31.14408
908	6.80684	3.1607200	33.3178	33.1321	6.964466	31.13674
909	6.81377	3.1605651	33.1594	32.9746	6.963690	31.12884
910	6.81848	3.1602060	32.9919	32.8081	6.963287	31.12073
911	6.82236	3.1605464	32.8120	32.6292	6.962640	31.12101
912	6.82888	3.1593021	32.6384	32.4565	6.962451	31.10162
913	6.83752	3.1584912	32.4832	32.3022	6.961789	31.08504
914	6.84694	3.1582806	32.3428	32.1626	6.960735	31.07428
915	6.85709	3.1581010	32.2060	32.0265	6.959578	31.06322
916	6.86646	3.1583237	32.0719	31.8933	6.958318	31.05723
917	6.87443	3.1583112	31.9438	31.7658	6.957345	31.04994
918	6.88231	3.1585215	31.8190	31.6417	6.956275	31.04517
919	6.88889	3.1582800	31.6788	31.5023	6.955585	31.03667
920	6.89371	3.1580076	31.5327	31.3571	6.955126	31.02942
921	6.89832	3.1579147	31.3957	31.2209	6.954605	31.02431
922	6.90387	3.1582178	31.2736	31.0995	6.953775	31.02266
923	6.91154	3.1574999	31.1700	30.9964	6.953186	31.00799
924	6.91958	3.1571966	31.0849	30.9118	6.952350	30.99748
925	6.92497	3.1571346	30.9997	30.8271	6.951719	30.99199
926	6.92891	3.1568623	30.8991	30.7270	6.951368	30.98553
927	6.93124	3.1572583	30.7924	30.6210	6.950886	30.98777
928	6.93031	3.1569550	30.6677	30.4970	6.951147	30.98538
929	6.92891	3.1561445	30.5489	30.3788	6.951713	30.97789
930	6.93083	3.1566270	30.4300	30.2606	6.951239	30.98145
931	6.93591	3.1563238	30.3171	30.1483	6.950764	30.97364
932	6.94312	3.1562927	30.2047	30.0365	6.949895	30.96686
933	6.95402	3.1562678	30.0979	29.9304	6.948572	30.95683
934	6.96684	3.1560820	29.9975	29.8305	6.947094	30.94333
935	6.97832	3.1560819	29.8971	29.7307	6.945689	30.93306
936	6.98803	3.1561993	29.7934	29.6276	6.944443	30.92566
937	6.99650	3.1559950	29.6865	29.5213	6.943507	30.91589
938	7.00315	3.1558464	29.5773	29.4127	6.942765	30.90836
939	7.00949	3.1557845	29.4614	29.2975	6.942018	30.90205
940	7.01630	3.1557534	29.3426	29.1794	6.941199	30.89566
941	7.02383	3.1557224	29.2148	29.0522	6.940292	30.88862
942	7.03132	3.1559017	29.0866	28.9248	6.939288	30.88391
943	7.03460	3.1561738	28.9496	28.7885	6.938752	30.88399
944	7.03298	3.1560253	28.7913	28.6312	6.939018	30.88389
945	7.03231	3.1551530	28.6450	28.4857	6.939523	30.87512
946	7.03392	3.1540395	28.4834	28.3250	6.939866	30.86169
947	7.03678	3.1537425	28.3252	28.1677	6.939659	30.85599
948	7.03974	3.1543733	28.1574	28.0009	6.938986	30.86024
949	7.04365	3.1543732	27.9870	27.8313	6.938506	30.85682
950	7.04697	3.1542309	27.8192	27.6645	6.938166	30.85238
951	7.04968	3.1541937	27.6487	27.4950	6.937850	30.84963
952	7.05041	3.1537421	27.4659	27.3132	6.937978	30.84417
953	7.04999	3.1532596	27.2770	27.1254	6.938260	30.83941
954	7.05020	3.1529627	27.1035	26.9529	6.938375	30.83609
955	7.05108	3.1532162	26.9144	26.7648	6.938140	30.83813
956	7.05374	3.1541006	26.7500	26.6013	6.937382	30.84540
957	7.05998	3.1546386	26.6067	26.4588	6.936355	30.84570
958	7.07346	3.1549106	26.4757	26.3285	6.934576	30.83664
959	7.09053	3.1550589	26.3692	26.2227	6.932419	30.82303
960	7.10746	3.1551824	26.2502	26.1043	6.930294	30.80930
961	7.12523	3.1560236	26.1620	26.0166	6.927719	30.80256
962	7.14645	3.1570133	26.0980	25.9530	6.924654	30.79434
963	7.16830	3.1572234	26.0555	25.9107	6.921892	30.77714
964	7.18505	3.1576440	26.0037	25.8592	6.919651	30.76678
965	7.19768	3.1572417	25.9489	25.8048	6.918308	30.75122
966	7.20379	3.1564743	25.8880	25.7441	6.917935	30.73754
967	7.20927	3.1558123	25.8301	25.6866	6.917587	30.72556
968	7.21544	3.1555090	25.7752	25.6320	6.916983	30.71684
969	7.22165	3.1554533	25.7145	25.5717	6.916254	30.71074
970	7.22756	3.1553728	25.6626	25.5201	6.915574	30.70466
971	7.23430	3.1558676	25.5988	25.4566	6.914515	30.70403
972	7.24318	3.1566223	25.5347	25.3929	6.913070	30.70429
973	7.25259	3.1573709	25.4677	25.3262	6.911565	30.70402
974	7.26111	3.1577916	25.4070	25.2658	6.910327	30.70101
975	7.26864	3.1581628	25.3430	25.2022	6.909233	30.69835
976	7.27612	3.1584845	25.2760	25.1357	6.908169	30.69520
977	7.28465	3.1582121	25.2122	25.0721	6.907265	30.68474
978	7.29548	3.1576736	25.1358	24.9962	6.906208	30.66938
979	7.30773	3.1577601	25.0568	24.9176	6.904680	30.65949
980	7.32312	3.1577166	24.9685	24.8298	6.902833	30.64544
981	7.34308	3.1569490	24.8620	24.7239	6.900780	30.61959
982	7.36200	3.1562311	24.7400	24.6027	6.898830	30.59523
983	7.37804	3.1559586	24.5998	24.4632	6.897014	30.57821
984	7.39189	3.1553274	24.4537	24.3179	6.895636	30.55929
985	7.40259	3.1547334	24.2920	24.1571	6.894621	30.54357
986	7.41014	3.1539786	24.1092	23.9753	6.894064	30.52891
987	7.41329	3.1535270	23.9204	23.7876	6.893894	30.52139
988	7.42096	3.1539784	23.7286	23.5969	6.892747	30.51956
989	7.43786	3.1539410	23.5396	23.4089	6.890715	30.50437
990	7.46066	3.1536129	23.3325	23.2030	6.888110	30.48092
991	7.48526	3.1530436	23.1313	23.0029	6.885403	30.45333
992	7.50582	3.1523569	22.9178	22.7906	6.883240	30.42806
993	7.52050	3.1518125	22.7138	22.5878	6.881720	30.40948
994	7.53324	3.1524492	22.5005	22.3757	6.879875	30.40522
995	7.55319	3.1524428	22.2872	22.1636	6.877465	30.38779
996	7.57427	3.1520220	22.0739	21.9515	6.875117	30.36499
997	7.59725	3.1513909	21.8699	21.7486	6.872639	30.33830
998	7.61460	3.1518730	21.6595	21.5394	6.870315	30.32840
999	7.64235	3.1515326	21.4554	21.3364	6.867126	30.30069
1000	7.67181	3.1511798	21.2420	21.1242	6.863739	30.27140
1001	7.69733	3.1507033	21.0410	20.9244	6.860887	30.24426
1002	7.71822	3.1498622	20.8307	20.7152	6.858766	30.21730
1003	7.73943	3.1485885	20.6115	20.4972	6.856808	30.18551
1004	7.76107	3.1476734	20.4011	20.2880	6.854629	30.15717
1005	7.78416	3.1474074	20.1878	20.0759	6.851974	30.13449
1006	7.81319	3.1460289	19.9776	19.8669	6.849125	30.09493
1007	7.84188	3.1446815	19.7674	19.6579	6.846305	30.05606
1008	7.87945	3.1414504	19.5511	19.4428	6.843295	29.98973
1009	7.91573	3.1384366	19.3438	19.2366	6.840338	29.92692
1010	7.94646	3.1364609	19.1334	19.0274	6.837563	29.87992
1011	7.97524	3.1352077	18.9201	18.8153	6.834687	29.84225
1012	8.00479	3.1336646	18.7038	18.6002	6.831853	29.80094
1013	8.03628	3.1299692	18.4997	18.3972	6.829782	29.73542
1014	8.06854	3.1256527	18.2833	18.1821	6.827902	29.66285
1015	8.09570	3.1235507	18.0701	17.9700	6.825609	29.61793
1016	8.12288	3.1219729	17.8628	17.7639	6.823072	29.57855
1017	8.14879	3.1196008	17.6648	17.5671	6.821052	29.53197
1018	8.16825	3.1184118	17.4667	17.3700	6.819262	29.50326
1019	8.18248	3.1183869	17.2656	17.1700	6.817564	29.49113
1020	8.19618	3.1161884	17.0615	16.9671	6.816927	29.45674
1021	8.20918	3.1146491	16.8604	16.7671	6.816071	29.42984
1022	8.21860	3.1132886	16.6532	16.5610	6.815561	29.40783
1023	8.22230	3.1139717	16.4459	16.3549	6.814801	29.41196
1024	8.22830	3.1116021	16.2387	16.1489	6.815163	29.38229
1025	8.23462	3.1090179	16.0347	15.9460	6.815585	29.35012
1026	8.24410	3.1079412	15.8365	15.7489	6.814936	29.33106
1027	8.25417	3.1070554	15.6324	15.5459	6.814130	29.31350
1028	8.26253	3.1056162	15.4311	15.3458	6.813781	29.29161
1029	8.26843	3.1055485	15.2303	15.1461	6.813101	29.28608
1030	8.27283	3.1051364	15.0261	14.9430	6.812759	29.27821
1031	8.27685	3.1040603	14.8187	14.7368	6.812764	29.26373
1032	8.27856	3.1027754	14.6207	14.5399	6.813142	29.24900
1033	8.28194	3.1022467	14.4106	14.3309	6.812974	29.24077
1034	8.28704	3.1012018	14.2093	14.1307	6.812836	29.22573
1035	8.29138	3.1001262	14.0022	13.9248	6.812802	29.21101
1036	8.29482	3.0990385	13.7951	13.7189	6.812882	29.19692
1037	8.29621	3.0985285	13.5878	13.5127	6.812944	29.19054
1038	8.29010	3.1005378	13.3835	13.3096	6.812757	29.21662
1039	8.27867	3.1013613	13.1826	13.1097	6.813748	29.23478
1040	8.27910	3.0994255	12.9721	12.9005	6.814577	29.21434
1041	8.28012	3.0938605	12.7711	12.7005	6.816992	29.15560
1042	8.28248	3.0970355	12.5669	12.4974	6.815255	29.18680
1043	8.29042	3.0978155	12.3657	12.2974	6.813942	29.18843
1044	8.30270	3.0958620	12.1706	12.1034	6.813355	29.15798
1045	8.31703	3.0876667	11.9757	11.9095	6.815367	29.06093
1046	8.33040	3.0798290	11.7808	11.7158	6.817327	28.96850
1047	8.34361	3.0743629	11.5888	11.5248	6.818223	28.90093
1048	8.35623	3.0692372	11.3815	11.3187	6.819031	28.83744
1049	8.36773	3.0641760	11.1743	11.1126	6.819943	28.77559
1050	8.37881	3.0606649	10.9733	10.9127	6.820200	28.73022
1051	8.38924	3.0579194	10.7598	10.7004	6.820184	28.69334
1052	8.39817	3.0548327	10.5497	10.4914	6.820505	28.65418
1053	8.40591	3.0522053	10.3485	10.2914	6.820759	28.62075
1054	8.41226	3.0499758	10.1352	10.0793	6.821000	28.59259
1055	8.41845	3.0468372	9.9310	9.8762	6.821672	28.55516
1056	8.42496	3.0428150	9.7177	9.6640	6.822706	28.50835
1057	8.43314	3.0375874	9.4983	9.4459	6.824082	28.44775
1058	8.44138	3.0316197	9.2911	9.2398	6.825786	28.37949
1059	8.44779	3.0277939	9.0807	9.0306	6.826740	28.33488
1060	8.45371	3.0240795	8.8706	8.8216	6.827700	28.29183
1061	8.45888	3.0209875	8.6573	8.6095	6.828470	28.25583
1062	8.46335	3.0175013	8.4440	8.3974	6.829502	28.21634
1063	8.46648	3.0124603	8.2245	8.1791	6.831401	28.16189
1064	8.47063	3.0090629	8.0111	7.9669	6.832431	28.12361
1065	8.47612	3.0045617	7.7948	7.7519	6.833796	28.07288
1066	8.48410	2.9964100	7.5815	7.5397	6.836511	27.98257
1067	8.49154	2.9884666	7.3742	7.3336	6.839194	27.89491
1068	8.49607	2.9834258	7.1486	7.1092	6.840917	27.83950
1069	8.49742	2.9781279	6.9293	6.8911	6.843145	27.78397
1070	8.49752	2.9614160	6.7190	6.6820	6.850690	27.61197
1071	8.49477	2.9419493	6.5057	6.4698	6.859837	27.41401
1072	8.48928	2.9225306	6.2863	6.2517	6.869308	27.21881
1073	8.48588	2.9098415	6.0730	6.0395	6.875475	27.09120
1074	8.48529	2.9010559	5.8598	5.8275	6.879528	27.00156
1075	8.48766	2.8844472	5.6525	5.6213	6.886760	26.82946
1076	8.49203	2.8657676	5.4300	5.4001	6.894681	26.63481
1077	8.49440	2.8565311	5.2104	5.1817	6.898569	26.53852
1078	8.48599	2.8455976	4.9971	4.9696	6.904581	26.43299
1079	8.47650	2.8160197	4.7748	4.7485	6.919202	26.13757
1080	8.46314	2.7927175	4.5614	4.5363	6.931483	25.90936
1081	8.43885	2.7758759	4.3389	4.3150	6.942235	25.75517
1082	8.40909	2.7487064	4.1133	4.0907	6.958426	25.49941
1083	8.38252	2.7141806	3.8817	3.8604	6.977617	25.16624
1084	8.35865	2.6904632	3.6594	3.6392	6.991562	24.94140
1085	8.32734	2.6705067	3.4581	3.4391	7.004788	24.76009
1086	8.29846	2.6575710	3.2630	3.2451	7.014502	24.64852
1087	8.27776	2.6611760	3.0682	3.0513	7.015549	24.69987
1088	8.26634	2.6479379	2.8884	2.8725	7.023141	24.57286
1089	8.25943	2.6486102	2.7175	2.7026	7.023736	24.58461
1090	8.24935	2.6235317	2.5622	2.5481	7.036625	24.33590
1091	8.23376	2.6055776	2.4036	2.3904	7.046972	24.16371
1092	8.22075	2.6031637	2.2605	2.2481	7.049809	24.14810
1093	8.21207	2.5967784	2.0960	2.0845	7.053910	24.08903
1094	8.20517	2.5976820	1.9314	1.9208	7.054406	24.10303
1095	8.19639	2.5950291	1.7882	1.7784	7.056797	24.08205
1096	8.18392	2.5693328	1.6511	1.6420	7.070358	23.82874
1097	8.16814	2.5443797	1.5445	1.5360	7.084041	23.58536
1098	8.15039	2.5360720	1.4652	1.4571	7.090281	23.51272
1099	8.13287	2.5335104	1.4014	1.3937	7.093830	23.49839
1100	8.12004	2.5373506	1.3220	1.3147	7.093768	23.54612
1101	8.11241	2.5714893	1.2429	1.2361	7.078906	23.89943
1102	8.10920	2.6280281	1.1514	1.1451	7.053034	24.47963
1103	8.10739	2.6942724	1.0752	1.0693	7.022488	25.16022
1104	8.10392	2.7179963	0.9778	0.9724	7.011920	25.40658
1105	8.09965	2.7138490	0.8957	0.8907	7.014401	25.36705
1106	8.09746	2.6541662	0.8133	0.8088	7.042425	24.75578
1107	8.09660	2.5661062	0.7553	0.7512	7.083519	23.85540
1108	8.09367	2.5374705	0.7188	0.7148	7.097253	23.56524
1109	8.08796	2.6395975	0.6669	0.6632	7.050453	24.61316
1110	8.08374	2.7894584	0.6063	0.6029	6.981338	26.15796
1111	8.07974	2.8231271	0.4994	0.4966	6.966219	26.50897
1112	8.06811	2.8037496	0.3927	0.3905	6.976701	26.31739
1113	8.05488	2.7854250	0.2617	0.2603	6.986912	26.13794
1114	8.05174	2.8901397	0.1856	0.1845	6.938656	27.22512
1115	8.07542	2.9534616	0.1734	0.1725	6.906335	27.86494
1116	8.08273	3.0011087	0.1704	0.1695	6.883383	28.35559
1117	8.07776	3.0513932	0.1766	0.1756	6.860745	28.88483
1118	8.04257	3.0817718	0.1766	0.1756	6.850972	29.23208
1119	7.96635	2.1557107	0.1735	0.1725	7.294047	19.78286
1120	7.89990	0.5260049	0.1706	0.1696	8.071328	4.32421
1121	7.88816	0.8037881	0.1706	0.1697	7.945086	6.81262
1122	7.89082	0.7802477	0.1707	0.1698	7.955579	6.59804
1123	7.89167	0.7807645	0.1769	0.1760	7.955183	6.60257
1124	7.89225	0.6238377	0.1738	0.1728	8.027845	5.19059
1125	7.89273	0.5954460	0.1645	0.1636	8.040834	4.93812
1126	7.89321	0.5728822	0.1707	0.1698	8.051116	4.73818
1127	7.89400	0.5645102	0.1708	0.1698	8.054809	4.66407
1128	7.89491	0.5403696	0.1738	0.1729	8.065703	4.45111
1129	7.89549	0.4934033	0.1740	0.1730	8.087043	4.03921
1130	7.89634	0.4790631	0.1771	0.1762	8.093410	3.91399
1131	7.89682	0.3981193	0.1738	0.1729	8.129959	3.21355
1132	7.89714	0.4367518	0.1741	0.1731	8.112456	3.54652
1133	7.89995	0.5813028	0.1710	0.1700	8.045979	4.81177
1134	7.90739	0.7319443	0.1741	0.1731	7.975007	6.15767
1135	7.91196	0.4536059	0.1681	0.1672	8.101982	3.69098
1136	7.91398	0.4474203	0.1773	0.1764	8.104397	3.63715
1137	7.91467	0.4293717	0.1741	0.1731	8.112426	3.48098
1138	7.91435	0.5705536	0.1773	0.1763	8.048203	4.71474
1139	7.91297	0.5490439	0.1683	0.1674	8.058318	4.52517
1140	7.91143	0.4343618	0.1714	0.1704	8.110793	3.52441
1141	7.91074	0.3858219	0.1712	0.1702	8.132800	3.10683
1142	7.91058	0.3411940	0.1775	0.1765	8.152808	2.72640
1143	7.91031	0.2934495	0.1713	0.1704	8.174069	2.32355
1144	7.90951	0.2699032	0.1654	0.1644	8.184615	2.12663
1145	7.90957	0.2490010	0.1715	0.1706	8.193784	1.95279
1146	7.90951	0.2628702	0.1715	0.1706	8.187708	2.06802
1147	7.90951	0.3092812	0.1715	0.1705	8.167212	2.45669
1148	7.90957	0.3162613	0.1715	0.1706	8.164103	2.51553
1149	7.90951	0.3155969	0.1684	0.1675	8.164409	2.50993
1150	7.90920	0.2970846	0.1717	0.1707	8.172679	2.35414
1151	7.90866	0.2854954	0.1717	0.1708	8.177907	2.25698
1152	7.90808	0.2691535	0.1715	0.1705	8.185226	2.12046
1153	7.90718	0.2601008	0.1687	0.1677	8.189385	2.04512
1154	7.90590	0.2444285	0.1717	0.1708	8.196509	1.91510
1155	7.90356	0.2303848	0.1719	0.1709	8.203109	1.79914
1156	7.90091	0.2323222	0.1687	0.1678	8.202787	1.81526
1157	7.89836	0.2520744	0.1657	0.1648	8.194644	1.97892
1158	7.89639	0.2570558	0.1688	0.1679	8.192844	2.02042
1159	7.89522	0.2526236	0.1719	0.1710	8.195020	1.98365
1160	7.89337	0.2285068	0.1689	0.1680	8.205943	1.78416
1161	7.89145	0.2142285	0.1658	0.1649	8.212542	1.66676
1162	7.88954	0.1978116	0.1751	0.1741	8.220045	1.53240
1163	7.88758	0.1893520	0.1752	0.1742	8.224094	1.46349
1164	7.88545	0.1753308	0.1720	0.1710	8.230561	1.34967
1165	7.88365	0.1657965	0.1782	0.1772	8.235016	1.27261
1166	7.88290	0.1741158	0.1752	0.1742	8.231591	1.33992
1167	7.88274	0.1793064	0.1660	0.1651	8.229388	1.38201
1168	7.88312	0.1758170	0.1721	0.1712	8.230817	1.35370
1169	7.88370	0.1747748	0.1721	0.1712	8.231149	1.34523
1170	7.88413	0.1743155	0.1691	0.1682	8.231262	1.34149
1171	7.88444	0.1814684	0.1784	0.1774	8.228119	1.39950
1172	7.88466	0.1885451	0.1722	0.1713	8.225023	1.45704
1173	7.88503	0.1910537	0.1723	0.1714	8.223865	1.47746
1174	7.88535	0.1982619	0.1753	0.1744	8.220683	1.53627
1175	7.88535	0.1914190	0.1693	0.1684	8.223644	1.48043
1176	7.88529	0.1892951	0.1723	0.1714	8.224572	1.46312
1177	7.88508	0.1900520	0.1693	0.1684	8.224287	1.46930
1178	7.88487	0.1957830	0.1756	0.1746	8.221851	1.51604
1179	7.88503	0.2032137	0.1724	0.1715	8.218599	1.57677
1180	7.88492	0.2170541	0.1755	0.1746	8.212605	1.69029
1181	7.88503	0.2350451	0.1724	0.1715	8.204733	1.83857
1182	7.88529	0.2522804	0.1756	0.1746	8.197127	1.98136
1183	7.88513	0.2638699	0.1817	0.1807	8.192063	2.07779
1184	7.88513	0.2680379	0.1847	0.1836	8.190227	2.11254
1185	7.88519	0.2612200	0.1996	0.1985	8.193219	2.05571
1186	7.88529	0.2625980	0.1965	0.1954	8.192591	2.06718
1187	7.88508	0.2561929	0.1787	0.1777	8.195450	2.01389
1188	7.88529	0.2494502	0.1757	0.1748	8.198370	1.95786
1189	7.88551	0.2461264	0.1727	0.1718	8.199786	1.93028
1190	7.88572	0.2344689	0.1695	0.1686	8.204849	1.83378
1191	7.88609	0.2354884	0.1697	0.1688	8.204329	1.84218
1192	7.88683	0.2546086	0.1698	0.1689	8.195801	2.00062
1193	7.88731	0.2656115	0.1727	0.1717	8.190867	2.09217
1194	7.88795	0.2761063	0.1729	0.1719	8.186116	2.17974
1195	7.88885	0.2779461	0.1698	0.1689	8.185126	2.19506
1196	7.88944	0.2639802	0.1790	0.1781	8.191168	2.07845
1197	7.88991	0.2720984	0.1699	0.1690	8.187498	2.14613
1198	7.89007	0.2742989	0.1729	0.1719	8.186496	2.16450
1199	7.88986	0.2673267	0.1730	0.1721	8.189611	2.10632
1200	7.89018	0.2625601	0.1759	0.1750	8.191647	2.06658
1201	7.89018	0.2583319	0.1791	0.1781	8.193506	2.03139
1202	7.89055	0.2540384	0.1761	0.1752	8.195320	1.99567
1203	7.89076	0.2522804	0.1730	0.1721	8.196050	1.98105
1204	7.89060	0.2534271	0.1701	0.1692	8.195577	1.99059
1205	7.89066	0.2596086	0.1731	0.1722	8.192851	2.04198
1206	7.89060	0.2640388	0.1731	0.1721	8.190912	2.07887
1207	7.89071	0.2668745	0.1732	0.1723	8.189643	2.10250
1208	7.89060	0.2671161	0.1703	0.1694	8.189557	2.10452
1209	7.89013	0.2656529	0.1734	0.1724	8.190296	2.09235
1210	7.88970	0.2649492	0.1733	0.1723	8.190689	2.08651
1211	7.88928	0.2628461	0.1793	0.1783	8.191698	2.06901
1212	7.88901	0.2613715	0.1764	0.1754	8.192399	2.05675
1213	7.88885	0.2702730	0.1732	0.1723	8.188511	2.13096
1214	7.88859	0.2873557	0.1765	0.1755	8.181020	2.27386
1215	7.88853	0.3038059	0.1704	0.1694	8.173743	2.41205
1216	7.88843	0.3119195	0.1673	0.1663	8.170161	2.48041
1217	7.88837	0.3166305	0.1765	0.1756	8.168077	2.52017
1218	7.88805	0.3233474	0.1733	0.1723	8.165150	2.57694
1219	7.88811	0.3246342	0.1732	0.1723	8.164566	2.58782
1220	7.88795	0.3201171	0.1704	0.1695	8.166609	2.54964
1221	7.88805	0.3118036	0.1735	0.1725	8.170285	2.47946
1222	7.88800	0.2996900	0.1706	0.1697	8.175672	2.37746
1223	7.88805	0.2893634	0.1736	0.1727	8.180236	2.29073
1224	7.88800	0.2800682	0.1767	0.1757	8.184356	2.21287
1225	7.88795	0.2736344	0.1767	0.1757	8.187206	2.15908
1226	7.88768	0.2837893	0.1828	0.1818	8.182774	2.24404
1227	7.88768	0.2916234	0.1704	0.1695	8.179309	2.30972
1228	7.88779	0.3060430	0.1675	0.1665	8.172895	2.43093
1229	7.88779	0.3187515	0.1766	0.1756	8.167247	2.53812
1230	7.88752	0.3222761	0.1736	0.1726	8.165730	2.56792
1231	7.88763	0.3281734	0.1736	0.1726	8.163083	2.61780
1232	7.88747	0.3273755	0.1738	0.1729	8.163469	2.61106
1233	7.88726	0.3162086	0.1739	0.1729	8.168482	2.51668
1234	7.88742	0.3045024	0.1677	0.1667	8.173652	2.41799
1235	7.88715	0.2932125	0.1709	0.1700	8.178709	2.32309
1236	7.88689	0.2824002	0.1677	0.1668	8.183545	2.23246
1237	7.88705	0.2744304	0.1738	0.1729	8.187032	2.16579
1238	7.88699	0.2670367	0.1770	0.1760	8.190302	2.10407
1239	7.88715	0.2642078	0.1769	0.1759	8.191517	2.08048
1240	7.88710	0.2772288	0.1738	0.1728	8.185787	2.18917
1241	7.88710	0.3001024	0.1738	0.1729	8.175666	2.38099
1242	7.88694	0.3195433	0.1740	0.1730	8.167061	2.54487
1243	7.88699	0.3234355	0.1769	0.1760	8.165318	2.57776
1244	7.88689	0.3314237	0.1740	0.1731	8.161779	2.64538
1245	7.88683	0.3171052	0.1740	0.1730	8.168166	2.52428
1246	7.88662	0.3019063	0.1709	0.1700	8.174960	2.39619
1247	7.88678	0.2896871	0.1711	0.1701	8.180343	2.29353
1248	7.88678	0.2775822	0.1709	0.1700	8.185694	2.19215
1249	7.88657	0.2683384	0.1771	0.1762	8.189812	2.11496
1250	7.88641	0.2579879	0.1772	0.1762	8.194400	2.02874
1251	7.88651	0.2505373	0.1712	0.1702	8.197652	1.96682
1252	7.88636	0.2435971	0.1711	0.1701	8.200727	1.90927
1253	7.88630	0.2406089	0.1772	0.1762	8.202047	1.88453
1254	7.88641	0.2513881	0.1742	0.1733	8.197299	1.97389
1255	7.88614	0.2590442	0.1681	0.1671	8.193987	2.03755
1256	7.88620	0.2730912	0.1744	0.1734	8.187790	2.15465
1257	7.88609	0.2888900	0.1711	0.1702	8.180831	2.28689
1258	7.88604	0.2933798	0.1773	0.1763	8.178854	2.32457
1259	7.88593	0.2979400	0.1744	0.1734	8.176854	2.36288
1260	7.88567	0.2989843	0.1805	0.1795	8.176443	2.37168
1261	7.88567	0.2919614	0.1713	0.1704	8.179555	2.31269
1262	7.88556	0.2776931	0.1715	0.1705	8.185884	2.19315
1263	7.88545	0.2687735	0.1745	0.1736	8.189840	2.11865
1264	7.88545	0.2607241	0.1713	0.1703	8.193384	2.05157
1265	7.88535	0.2517621	0.1743	0.1733	8.197344	1.97706
1266	7.88524	0.2460477	0.1684	0.1675	8.199873	1.92964
1267	7.88503	0.2378460	0.1715	0.1705	8.203508	1.86173
1268	7.88513	0.2377163	0.1715	0.1705	8.203543	1.86065
1269	7.88503	0.2538117	0.1714	0.1705	8.196507	1.99410
1270	7.88503	0.2739043	0.1685	0.1676	8.187661	2.16152
1271	7.88487	0.2942410	0.1716	0.1707	8.178701	2.33188
1272	7.88482	0.3031725	0.1715	0.1706	8.174751	2.40697
1273	7.88471	0.3101475	0.1685	0.1676	8.171675	2.46573
1274	7.88466	0.3056053	0.1746	0.1736	8.173703	2.42746
1275	7.88450	0.2925154	0.1749	0.1739	8.179538	2.31741
1276	7.88450	0.2809008	0.1744	0.1735	8.184676	2.22006
1277	7.88418	0.2677652	0.1746	0.1737	8.190535	2.11032
1278	7.88402	0.2578228	0.1808	0.1798	8.194943	2.02751
1279	7.88407	0.2472944	0.1748	0.1738	8.199556	1.94005
1280	7.88413	0.2392561	0.1686	0.1677	8.203069	1.87345
1281	7.88391	0.2307899	0.1746	0.1737	8.206814	1.80348
1282	7.88381	0.2244696	0.1780	0.1770	8.209594	1.75137
1283	7.88391	0.2193405	0.1749	0.1740	8.211809	1.70914
1284	7.88391	0.2134203	0.1718	0.1709	8.214387	1.66048
1285	7.88381	0.2104671	0.1719	0.1709	8.215692	1.63625
1286	7.88370	0.2187712	0.1656	0.1647	8.212099	1.70446
1287	7.88354	0.2342371	0.1749	0.1740	8.205380	1.83197
1288	7.88354	0.2578228	0.1749	0.1739	8.195037	2.02753
1289	7.88359	0.2665397	0.1689	0.1680	8.191190	2.10013
1290	7.88338	0.2732330	0.1719	0.1709	8.188281	2.15601
1291	7.88338	0.2841055	0.1749	0.1740	8.183478	2.24696
1292	7.88328	0.2759989	0.1688	0.1678	8.187081	2.17913
1293	7.88296	0.2733714	0.1751	0.1742	8.188303	2.15719
1294	7.88290	0.2653666	0.1749	0.1740	8.191842	2.09039
1295	7.88274	0.2496079	0.1686	0.1677	8.198803	1.95932
1296	7.88269	0.2394849	0.1751	0.1742	8.203251	1.87542
1297	7.88259	0.2276839	0.1780	0.1770	8.208433	1.77792
1298	7.88253	0.2171455	0.1751	0.1741	8.213039	1.69115
1299	7.88243	0.2088197	0.1721	0.1712	8.216681	1.62280
1300	7.88232	0.2011605	0.1782	0.1772	8.220027	1.56009
1301	7.88243	0.1957293	0.1689	0.1680	8.222359	1.51571
