Scan Count	Temperature [ITS-90, deg C]	Conductivity [S/m]	Pressure, Strain Gauge [db]	Depth [salt water, m]	Oxygen Saturation, Weiss [ml/l]	Salinity, Practical [PSU]
1	20.45727	0.0038197	0.0071	0.0071	6.292412	0.02528
2	20.45727	0.0037981	0.0102	0.0101	6.292415	0.02518
3	20.44119	0.0037425	0.0071	0.0071	6.294433	0.02493
4	20.42286	0.0036684	-0.0020	-0.0020	6.296736	0.02459
5	20.41781	0.0035819	0.0040	0.0040	6.297383	0.02419
6	20.41901	0.0035016	0.0071	0.0070	6.297246	0.02382
7	20.42127	0.0034399	0.0071	0.0070	6.296973	0.02353
8	20.42369	0.0033874	0.0071	0.0070	6.296681	0.02329
9	20.42505	0.0033534	0.0101	0.0101	6.296517	0.02314
10	20.42572	0.0033164	0.0010	0.0010	6.296438	0.02297
11	20.42784	0.0032639	0.0101	0.0101	6.296183	0.02273
12	20.42934	0.0032269	0.0041	0.0040	6.296001	0.02256
13	20.43168	0.0031867	0.0010	0.0010	6.295715	0.02238
14	20.43281	0.0031559	0.0071	0.0071	6.295579	0.02224
15	20.43334	0.0031651	0.0041	0.0040	6.295511	0.02228
16	20.43364	0.0031373	0.0040	0.0040	6.295478	0.02215
17	20.43364	0.0031281	0.0010	0.0010	6.295480	0.02211
18	20.43342	0.0031312	0.0071	0.0071	6.295508	0.02212
19	20.43334	0.0031466	0.0041	0.0040	6.295515	0.02219
20	20.43078	0.0031281	0.0101	0.0101	6.295838	0.02211
21	20.42965	0.0032083	0.0071	0.0070	6.295966	0.02247
22	20.42919	0.0033318	0.0101	0.0100	6.296002	0.02304
23	20.42851	0.0033596	0.0101	0.0101	6.296082	0.02317
24	20.42527	0.0033874	0.0101	0.0101	6.296483	0.02329
25	20.42572	0.0034924	0.0254	0.0252	6.296408	0.02378
26	20.15592	0.0056857	0.0314	0.0313	6.329909	0.03419
27	19.22543	0.0054137	0.0345	0.0343	6.449352	0.03316
28	18.46992	0.0056857	0.0375	0.0373	6.549229	0.03476
29	18.03684	0.0426122	0.0771	0.0766	6.599699	0.23883
30	17.74055	1.3219580	0.1105	0.1099	6.300589	8.98527
31	17.51319	1.6539631	0.1349	0.1341	6.234114	11.51941
32	17.34554	2.7394297	0.1957	0.1947	5.941557	20.06961
33	17.20473	2.8120411	0.3205	0.3187	5.934761	20.72676
34	17.06033	2.9002127	0.4665	0.4640	5.923549	21.51930
35	16.84749	2.9798949	0.5822	0.5790	5.921295	22.28823
36	16.68976	2.9800659	0.6369	0.6334	5.936880	22.37699
37	16.61072	2.9774515	0.6917	0.6879	5.945518	22.39929
38	16.54799	2.9923194	0.8012	0.7968	5.947322	22.55770
39	16.45575	3.0093966	0.9229	0.9179	5.951382	22.75179
40	16.34852	2.9855386	0.9838	0.9784	5.969272	22.61348
41	16.34171	2.9897810	0.9777	0.9723	5.968672	22.65275
42	16.45963	2.9894828	0.9899	0.9845	5.956978	22.58373
43	16.59350	2.9898331	0.9838	0.9784	5.943540	22.51150
44	16.68510	3.0007515	0.9716	0.9663	5.931199	22.55071
45	16.74221	3.0042361	0.9655	0.9602	5.924516	22.54759
46	16.77472	3.0067201	0.9777	0.9723	5.920569	22.54994
47	16.73161	3.0233163	0.9838	0.9784	5.919908	22.71143
48	16.63435	3.0424550	0.9868	0.9814	5.923808	22.92528
49	16.54799	3.0536303	0.9899	0.9844	5.928987	23.06764
50	16.47934	3.0596765	0.9838	0.9784	5.933949	23.15757
51	16.41778	3.0717879	0.9777	0.9724	5.936384	23.29440
52	16.35961	3.0811394	0.9686	0.9633	5.939306	23.40658
53	16.31634	3.0830285	0.9777	0.9723	5.943006	23.44773
54	16.29593	3.0839671	0.9838	0.9783	5.944738	23.46757
55	16.28526	3.0854025	0.9869	0.9814	5.945357	23.48588
56	16.28733	3.0839058	0.9808	0.9754	5.945606	23.47210
57	16.29626	3.0913427	0.9777	0.9723	5.942473	23.52930
58	16.28619	3.0860773	0.9777	0.9724	5.945061	23.49100
59	16.26160	3.0854886	0.9747	0.9693	5.947669	23.50050
60	16.24375	3.0842252	0.9899	0.9845	5.949818	23.50037
61	16.24482	3.0856974	0.9868	0.9814	5.949265	23.51212
62	16.25707	3.0785596	0.9807	0.9753	5.950218	23.44495
63	16.26840	3.0774072	0.9686	0.9632	5.949447	23.42864
64	16.26507	3.0932893	0.9625	0.9572	5.944962	23.56401
65	16.25707	3.0868200	0.9716	0.9663	5.947713	23.51435
66	16.24109	3.0819806	0.9838	0.9784	5.950762	23.48307
67	16.23989	3.0811897	0.9868	0.9814	5.951121	23.47713
68	16.25308	3.0765433	0.9990	0.9935	5.951226	23.43035
69	16.26906	3.0638135	0.9868	0.9814	5.953502	23.31413
70	16.27246	3.0638440	0.9747	0.9693	5.953155	23.31241
71	16.31067	3.0822375	0.9655	0.9602	5.943805	23.44442
72	16.33016	3.0788469	0.9656	0.9602	5.942905	23.40458
73	16.31941	3.0728485	0.9777	0.9724	5.945781	23.36056
74	16.30720	3.0736265	0.9868	0.9814	5.946753	23.37421
75	16.30753	3.0752806	0.9869	0.9814	5.946220	23.38789
76	16.31040	3.0746434	0.9838	0.9784	5.946129	23.38087
77	16.30053	3.0775050	0.9838	0.9784	5.946239	23.41065
78	16.28666	3.0851203	0.9777	0.9723	5.945304	23.48269
79	16.27400	3.0775359	0.9717	0.9663	5.948854	23.42644
80	16.25880	3.0734616	0.9747	0.9693	5.951593	23.40112
81	16.25088	3.0744418	0.9777	0.9724	5.952081	23.41399
82	16.25174	3.0775055	0.9807	0.9754	5.951066	23.43922
83	16.25727	3.0807051	0.9808	0.9754	5.949548	23.46286
84	16.26127	3.0828819	0.9777	0.9724	5.948492	23.47880
85	16.25414	3.0827716	0.9777	0.9724	5.949231	23.48206
86	16.23823	3.0814227	0.9747	0.9694	5.951215	23.48007
87	16.22298	3.0837654	0.9838	0.9784	5.952012	23.50872
88	16.20795	3.0865137	0.9808	0.9754	5.952665	23.54069
89	16.20429	3.0901773	0.9777	0.9724	5.951913	23.57367
90	16.21560	3.0918838	0.9778	0.9724	5.950276	23.58136
91	16.22006	3.0906314	0.9717	0.9663	5.950216	23.56819
92	16.19372	3.0910307	0.9747	0.9694	5.952700	23.58709
93	16.15823	3.0969877	0.9747	0.9693	5.954397	23.65826
94	16.13599	3.1003183	0.9838	0.9784	5.955582	23.69953
95	16.14316	3.0985853	0.9808	0.9754	5.955401	23.68066
96	16.14349	3.0966439	0.9899	0.9845	5.955961	23.66409
97	16.13911	3.1008222	0.9777	0.9723	5.955120	23.70193
98	16.16627	3.1072225	0.9747	0.9694	5.950484	23.73975
99	16.17989	3.1106183	0.9687	0.9633	5.948106	23.76028
100	16.17165	3.1139604	0.9778	0.9724	5.947901	23.79335
101	16.15670	3.1139852	0.9808	0.9754	5.949369	23.80247
102	16.16102	3.1077823	0.9808	0.9754	5.950832	23.74759
103	16.15690	3.1028259	0.9778	0.9724	5.952749	23.70826
104	16.16454	3.1001705	0.9778	0.9724	5.952803	23.68134
105	16.22152	3.1032002	0.9747	0.9693	5.946253	23.67309
106	16.27126	3.1101990	0.9778	0.9724	5.939226	23.70249
107	16.30787	3.1138975	0.9747	0.9694	5.934505	23.71189
108	16.32381	3.1146053	0.9808	0.9754	5.932724	23.70838
109	16.33096	3.1080574	0.9808	0.9754	5.934001	23.64918
110	16.34097	3.1044717	0.9778	0.9724	5.934099	23.61317
111	16.35540	3.1055047	0.9686	0.9633	5.932368	23.61333
112	16.37765	3.1082168	0.9687	0.9633	5.929363	23.62296
113	16.40165	3.1124500	0.9717	0.9664	5.925731	23.64429
114	16.41838	3.1167101	0.9748	0.9694	5.922809	23.67012
115	16.42394	3.1204303	0.9808	0.9754	5.921146	23.69801
116	16.42072	3.1220754	0.9778	0.9724	5.920966	23.71370
117	16.41718	3.1214223	0.9808	0.9754	5.921510	23.71032
118	16.42554	3.1190196	0.9656	0.9603	5.921413	23.68524
119	16.44161	3.1182495	0.9656	0.9603	5.920071	23.66930
120	16.45400	3.1209475	0.9687	0.9634	5.918048	23.68458
121	16.46037	3.1262601	0.9656	0.9603	5.915830	23.72531
122	16.45843	3.1265745	0.9778	0.9725	5.915926	23.72909
123	16.44898	3.1269754	0.9748	0.9695	5.916729	23.73803
124	16.44094	3.1272159	0.9839	0.9785	5.917443	23.74481
125	16.43940	3.1260384	0.9778	0.9724	5.917947	23.73585
126	16.44483	3.1266178	0.9808	0.9755	5.917242	23.73750
127	16.44717	3.1279250	0.9717	0.9664	5.916620	23.74706
128	16.44690	3.1287883	0.9687	0.9634	5.916387	23.75445
129	16.44791	3.1293002	0.9717	0.9664	5.916135	23.75815
130	16.45032	3.1316194	0.9718	0.9664	5.915203	23.77615
131	16.45313	3.1351366	0.9718	0.9664	5.913872	23.80395
132	16.44623	3.1353157	0.9748	0.9695	5.914492	23.80955
133	16.41704	3.1363776	0.9870	0.9816	5.917025	23.83579
134	16.38032	3.1363594	0.9809	0.9755	5.920620	23.85749
135	16.36341	3.1351931	0.9840	0.9786	5.922626	23.85777
136	16.36508	3.1345697	0.9688	0.9634	5.922650	23.85154
137	16.35753	3.1382673	0.9718	0.9664	5.922273	23.88710
138	16.34010	3.1412872	0.9749	0.9695	5.923068	23.92288
139	16.31227	3.1394903	0.9748	0.9695	5.926335	23.92441
140	16.26533	3.1390153	0.9748	0.9695	5.931077	23.94850
141	16.22012	3.1398803	0.9749	0.9695	5.935250	23.98289
142	16.20409	3.1411959	0.9657	0.9604	5.936424	24.00361
143	16.20994	3.1427215	0.9688	0.9635	5.935386	24.01296
144	16.21107	3.1441239	0.9688	0.9635	5.934849	24.02411
145	16.19631	3.1434136	0.9779	0.9725	5.936513	24.02700
146	16.16175	3.1429630	0.9780	0.9726	5.940044	24.04399
147	16.12497	3.1438282	0.9749	0.9695	5.943395	24.07348
148	16.10547	3.1455338	0.9688	0.9635	5.944792	24.09967
149	16.10567	3.1469800	0.9688	0.9635	5.944331	24.11178
150	16.10513	3.1481977	0.9719	0.9665	5.944011	24.12240
151	16.09817	3.1497000	0.9719	0.9665	5.944237	24.13932
152	16.08577	3.1508997	0.9780	0.9726	5.945089	24.15698
153	16.07511	3.1518583	0.9719	0.9665	5.945845	24.17156
154	16.07246	3.1530272	0.9688	0.9635	5.945748	24.18307
155	16.07524	3.1535344	0.9658	0.9605	5.945319	24.18567
156	16.07292	3.1517655	0.9719	0.9666	5.946088	24.17210
157	16.05815	3.1529346	0.9810	0.9756	5.947183	24.19096
158	16.04192	3.1542894	0.9780	0.9726	5.948364	24.21229
159	16.03372	3.1555949	0.9780	0.9726	5.948771	24.22834
160	16.03411	3.1569623	0.9750	0.9696	5.948313	24.23969
161	16.03835	3.1583733	0.9689	0.9636	5.947464	24.24908
162	16.04232	3.1596050	0.9598	0.9545	5.946696	24.25710
163	16.04537	3.1608740	0.9629	0.9576	5.946008	24.26600
164	16.04815	3.1607378	0.9689	0.9636	5.945777	24.26315
165	16.03948	3.1602364	0.9781	0.9727	5.946782	24.26418
166	16.00527	3.1630973	0.9872	0.9818	5.949268	24.30930
167	15.96978	3.1644230	0.9872	0.9818	5.952351	24.34224
168	15.96218	3.1582565	0.9781	0.9727	5.954995	24.29451
169	15.96681	3.1562947	0.9690	0.9636	5.955143	24.27503
170	15.97401	3.1593395	0.9659	0.9606	5.953497	24.29649
171	16.03862	3.1650603	0.9629	0.9576	5.945389	24.30560
172	16.06451	3.1696140	0.9660	0.9607	5.941454	24.32841
173	16.05715	3.1714240	0.9690	0.9637	5.941621	24.34823
174	16.05152	3.1699612	0.9751	0.9697	5.942621	24.33927
175	16.06610	3.1648432	0.9690	0.9637	5.942758	24.28701
176	16.06066	3.1644221	0.9599	0.9546	5.943420	24.28675
177	16.04120	3.1719697	0.9690	0.9637	5.943019	24.36261
178	16.02353	3.1755352	0.9782	0.9728	5.943660	24.40367
179	16.00362	3.1750207	0.9812	0.9758	5.945771	24.41151
180	15.98683	3.1737558	0.9843	0.9788	5.947808	24.41106
181	15.98914	3.1662936	0.9721	0.9668	5.949872	24.34628
182	15.98993	3.1648440	0.9569	0.9516	5.950239	24.33350
183	16.01797	3.1710896	0.9630	0.9577	5.945568	24.36936
184	16.05662	3.1747783	0.9630	0.9577	5.940646	24.37700
185	16.06119	3.1717587	0.9721	0.9668	5.941123	24.34860
186	16.06510	3.1708226	0.9843	0.9789	5.941026	24.33828
187	16.08571	3.1722668	0.9843	0.9789	5.938564	24.33793
188	16.11263	3.1726943	0.9873	0.9819	5.935797	24.32513
189	16.11979	3.1703634	0.9813	0.9759	5.935807	24.30103
190	16.11415	3.1693718	0.9691	0.9638	5.936661	24.29608
191	16.10553	3.1710887	0.9691	0.9638	5.936982	24.31587
192	16.10215	3.1758631	0.9722	0.9668	5.935855	24.35836
193	16.10600	3.1793495	0.9722	0.9669	5.934414	24.38553
194	16.11356	3.1768988	0.9753	0.9699	5.934423	24.36016
195	16.12497	3.1772585	0.9814	0.9760	5.933197	24.35624
196	16.13698	3.1794112	0.9783	0.9729	5.931365	24.36712
197	16.14362	3.1758689	0.9753	0.9699	5.931796	24.33310
198	16.14309	3.1729668	0.9692	0.9639	5.932732	24.30887
199	16.14335	3.1738844	0.9723	0.9669	5.932427	24.31647
200	16.15710	3.1777731	0.9723	0.9669	5.929898	24.34099
201	16.16408	3.1768673	0.9753	0.9699	5.929492	24.32907
202	16.16560	3.1744733	0.9784	0.9730	5.930072	24.30790
203	16.17570	3.1768672	0.9753	0.9700	5.928356	24.32199
204	16.18953	3.1791376	0.9723	0.9669	5.926315	24.33276
205	16.19717	3.1782938	0.9754	0.9700	5.925825	24.32097
206	16.20017	3.1675305	0.9754	0.9700	5.928804	24.22823
207	16.20256	3.1499648	0.9815	0.9761	5.933909	24.07851
208	16.20981	3.1426598	0.9846	0.9791	5.935418	24.01252
209	16.21979	3.1548567	0.9876	0.9821	5.930735	24.10939
210	16.23210	3.1648663	0.9785	0.9731	5.926491	24.18639
211	16.23610	3.1667123	0.9663	0.9610	5.925541	24.19955
212	16.23583	3.1620423	0.9694	0.9640	5.926984	24.16032
213	16.23550	3.1456499	0.9663	0.9610	5.931990	24.02230
214	16.23483	3.1264165	0.9754	0.9701	5.937893	23.86064
215	16.23856	3.1174262	0.9815	0.9761	5.940254	23.78271
216	16.24322	3.1205060	0.9785	0.9731	5.938861	23.80587
217	16.25021	3.1274275	0.9785	0.9731	5.936074	23.85997
218	16.25820	3.1265766	0.9724	0.9671	5.935547	23.84804
219	16.26320	3.1159727	0.9755	0.9701	5.938270	23.75583
220	16.26660	3.1028248	0.9816	0.9762	5.941921	23.64325
221	16.26833	3.0906923	0.9846	0.9792	5.945427	23.54026
222	16.26986	3.1017920	0.9755	0.9702	5.941912	23.63264
223	16.27500	3.1249304	0.9725	0.9671	5.934396	23.82418
224	16.28119	3.1264160	0.9694	0.9641	5.933338	23.83298
225	16.28453	3.0940690	0.9634	0.9581	5.942805	23.55910
226	16.28499	3.0741474	0.9816	0.9762	5.948792	23.39156
227	16.28453	3.0669464	0.9877	0.9823	5.951020	23.33141
228	16.28593	3.0806006	0.9817	0.9763	5.946746	23.44518
229	16.29866	3.1063355	0.9878	0.9823	5.937699	23.65380
230	16.30406	3.1131465	0.9787	0.9733	5.935106	23.70783
231	16.30153	3.1084268	0.9695	0.9642	5.936784	23.66968
232	16.30346	3.0975515	0.9695	0.9642	5.939883	23.57719
233	16.30460	3.0842246	0.9726	0.9673	5.943804	23.46465
234	16.30333	3.0787614	0.9817	0.9764	5.945582	23.41955
235	16.30253	3.0795338	0.9878	0.9824	5.945427	23.42650
236	16.30487	3.0778849	0.9879	0.9824	5.945696	23.41130
237	16.30847	3.0774743	0.9970	0.9915	5.945464	23.40574
238	16.31107	3.0888321	0.9970	0.9915	5.941771	23.49951
239	16.31581	3.1107339	0.9909	0.9855	5.934682	23.68061
240	16.31841	3.1198215	0.9818	0.9764	5.931679	23.75541
241	16.33062	3.1050068	0.9818	0.9764	5.934955	23.62376
242	16.34698	3.0817711	0.9879	0.9825	5.940361	23.41925
243	16.35186	3.0700128	0.9971	0.9916	5.943429	23.31788
244	16.34805	3.0805203	1.0031	0.9976	5.940633	23.40814
245	16.35246	3.1047668	1.0001	0.9946	5.932880	23.60887
246	16.35172	3.1161196	0.9880	0.9826	5.929526	23.70457
247	16.35733	3.1012748	0.9819	0.9765	5.933454	23.57671
248	16.36729	3.0774492	0.9850	0.9795	5.939661	23.37118
249	16.36422	3.0628948	0.9911	0.9856	5.944355	23.25109
250	16.34725	3.0635557	1.0032	0.9977	5.945835	23.26647
251	16.33603	3.0833533	1.0032	0.9977	5.940964	23.43892
252	16.33523	3.1009616	0.9972	0.9917	5.935724	23.58709
253	16.32568	3.1066550	0.9850	0.9796	5.934943	23.64052
254	16.33409	3.0939457	0.9820	0.9766	5.937955	23.52890
255	16.34631	3.0710293	0.9972	0.9917	5.943671	23.32962
256	16.34518	3.0582410	1.0002	0.9947	5.947645	23.22317
257	16.32722	3.0603813	1.0033	0.9978	5.948777	23.25152
258	16.31074	3.0794356	1.0003	0.9948	5.944646	23.42087
259	16.30246	3.0945355	0.9972	0.9917	5.940895	23.55245
260	16.28779	3.1003782	0.9881	0.9827	5.940573	23.61017
261	16.29906	3.0865741	0.9821	0.9767	5.943639	23.48762
262	16.31434	3.0665789	0.9912	0.9858	5.948179	23.31095
263	16.31247	3.0595742	1.0003	0.9948	5.950482	23.25332
264	16.28293	3.0642416	1.0034	0.9979	5.951998	23.30964
265	16.26287	3.0808645	1.0034	0.9979	5.948946	23.46091
266	16.24988	3.0917914	1.0003	0.9948	5.946916	23.56036
267	16.23430	3.0881824	0.9943	0.9889	5.949551	23.53920
268	16.24116	3.0745277	0.9883	0.9828	5.953018	23.42041
269	16.24096	3.0690649	0.9913	0.9858	5.954696	23.37463
270	16.22864	3.0708590	0.9974	0.9919	5.955372	23.39691
271	16.21653	3.0772729	0.9913	0.9859	5.954624	23.45792
272	16.21413	3.0831154	0.9944	0.9889	5.953086	23.50846
273	16.20402	3.0836429	0.9944	0.9889	5.953926	23.51884
274	16.19139	3.0809510	0.9853	0.9799	5.955997	23.50363
275	16.18235	3.0792040	0.9914	0.9859	5.957424	23.49424
276	16.17690	3.0784133	0.9944	0.9890	5.958205	23.49079
277	16.17404	3.0781130	0.9914	0.9860	5.958580	23.48995
278	16.17291	3.0794922	0.9945	0.9890	5.958272	23.50222
279	16.17331	3.0824167	0.9944	0.9890	5.957342	23.52661
280	16.17491	3.0841645	0.9915	0.9860	5.956652	23.54038
281	16.17690	3.0834715	0.9914	0.9860	5.956665	23.53337
282	16.17942	3.0810125	0.9975	0.9920	5.957164	23.51119
283	16.18148	3.0787626	0.9976	0.9921	5.957644	23.49104
284	16.18202	3.0803135	0.9976	0.9921	5.957120	23.50378
285	16.18281	3.0846920	0.9915	0.9861	5.955708	23.54016
286	16.18554	3.0863974	0.9885	0.9830	5.954919	23.55291
287	16.18906	3.0823123	0.9915	0.9861	5.955813	23.51645
288	16.19026	3.0757535	0.9946	0.9891	5.957690	23.46056
289	16.18355	3.0754043	0.9855	0.9801	5.958462	23.46157
290	16.16946	3.0774082	0.9885	0.9831	5.959250	23.48671
291	16.15856	3.0806326	0.9977	0.9923	5.959348	23.52027
292	16.15830	3.0853731	0.9946	0.9892	5.957930	23.56036
293	16.15544	3.0845512	0.9886	0.9832	5.958463	23.55512
294	16.14867	3.0801361	0.9916	0.9862	5.960481	23.52192
295	16.13997	3.0800258	0.9886	0.9832	5.961378	23.52612
296	16.12809	3.0814238	0.9856	0.9802	5.962130	23.54491
297	16.12052	3.0839995	0.9947	0.9893	5.962095	23.57108
298	16.12225	3.0872876	0.9917	0.9862	5.960920	23.59778
299	16.12251	3.0873981	0.9887	0.9832	5.960860	23.59856
300	16.11966	3.0844104	0.9917	0.9862	5.962055	23.57506
301	16.11661	3.0832942	0.9918	0.9863	5.962698	23.56745
302	16.11422	3.0849626	0.9918	0.9863	5.962426	23.58293
303	16.11389	3.0897977	0.9917	0.9863	5.960982	23.62390
304	16.11389	3.0956430	0.9887	0.9833	5.959197	23.67321
305	16.13473	3.0972583	0.9796	0.9742	5.956641	23.67447
306	16.18654	3.0906010	0.9796	0.9743	5.953541	23.58772
307	16.21952	3.0898273	0.9888	0.9834	5.950513	23.56174
308	16.22258	3.0931424	1.0009	0.9954	5.949203	23.58782
309	16.21254	3.0949971	1.0101	1.0046	5.949633	23.60935
310	16.21274	3.0985846	1.0131	1.0076	5.948523	23.63943
311	16.20622	3.1030160	1.0010	0.9955	5.947820	23.68059
312	16.22046	3.1026470	0.9858	0.9804	5.946526	23.66906
313	16.25701	3.0976994	0.9859	0.9804	5.944421	23.60583
314	16.28126	3.0949349	0.9889	0.9834	5.942865	23.56829
315	16.27260	3.0936700	1.0041	0.9986	5.944104	23.56276
316	16.25394	3.0960224	1.0041	0.9986	5.945232	23.59353
317	16.24468	3.0997825	1.0042	0.9986	5.945005	23.63062
318	16.23257	3.1011163	0.9950	0.9896	5.945796	23.64900
319	16.22378	3.0990269	0.9889	0.9835	5.947297	23.63662
320	16.22824	3.0956234	0.9920	0.9866	5.947891	23.60535
321	16.22498	3.0922029	0.9981	0.9926	5.949252	23.57850
322	16.20356	3.0920558	1.0042	0.9987	5.951415	23.58990
323	16.18168	3.0945982	1.0042	0.9987	5.952805	23.62423
324	16.17510	3.0973746	0.9982	0.9927	5.952610	23.65152
325	16.16713	3.0987264	0.9921	0.9867	5.952987	23.66763
326	16.15232	3.0972335	0.9891	0.9836	5.954907	23.66383
327	16.13831	3.0938494	0.9922	0.9867	5.957326	23.64360
328	16.12159	3.0935425	1.0012	0.9957	5.959076	23.65092
329	16.10116	3.0958212	1.0012	0.9957	5.960404	23.68227
330	16.09201	3.0989975	0.9952	0.9897	5.960340	23.71451
331	16.08485	3.1003126	0.9922	0.9867	5.960647	23.72988
332	16.08969	3.0981434	0.9922	0.9867	5.960831	23.70868
333	16.10454	3.0959993	0.9952	0.9898	5.960015	23.68176
334	16.11031	3.0955939	1.0014	0.9959	5.959567	23.67491
335	16.10076	3.0968470	1.0044	0.9989	5.960130	23.69116
336	16.09585	3.0989667	1.0074	1.0019	5.959969	23.71196
337	16.09307	3.1003125	0.9862	0.9807	5.959833	23.72499
338	16.08306	3.0988808	0.9801	0.9747	5.961262	23.71885
339	16.08220	3.0984384	0.9862	0.9808	5.961483	23.71563
340	16.07504	3.1034538	1.0045	0.9990	5.960658	23.76225
341	16.05556	3.1073405	1.0167	1.0111	5.961397	23.80671
342	16.03762	3.1064242	1.0106	1.0051	5.963455	23.80968
343	16.03147	3.1046655	1.0106	1.0051	5.964605	23.79848
344	16.01810	3.1056557	0.9893	0.9839	5.965626	23.81485
345	16.01916	3.1065720	0.9802	0.9748	5.965240	23.82197
346	16.03173	3.1097461	0.9894	0.9840	5.963021	23.84130
347	16.02902	3.1137833	1.0077	1.0021	5.962052	23.87708
348	16.00792	3.1171576	1.0107	1.0051	5.963106	23.91830
349	15.98385	3.1131190	1.0199	1.0143	5.966730	23.89854
350	15.97388	3.1104420	1.0107	1.0051	5.968542	23.88185
351	15.96833	3.1101159	0.9925	0.9870	5.969193	23.88242
352	15.98921	3.1123988	0.9804	0.9750	5.966420	23.88924
353	16.02895	3.1156734	0.9864	0.9810	5.961478	23.89312
354	16.05729	3.1213397	0.9956	0.9901	5.956940	23.92406
355	16.04795	3.1248711	1.0108	1.0052	5.956781	23.95953
356	16.01367	3.1238482	1.0108	1.0052	5.960483	23.97149
357	15.98782	3.1183403	1.0017	0.9962	5.964733	23.94039
358	15.96971	3.1163575	0.9957	0.9902	5.967136	23.93448
359	15.94911	3.1177741	0.9926	0.9872	5.968742	23.95889
360	15.93954	3.1240401	0.9866	0.9811	5.967762	24.01781
361	15.93512	3.1306439	0.9957	0.9902	5.966166	24.07652
362	15.91592	3.1473899	1.0109	1.0054	5.962905	24.23040
363	15.87768	3.1493560	1.0170	1.0114	5.966076	24.27044
364	15.85233	3.1296578	1.0201	1.0145	5.974674	24.11831
365	15.83574	3.1236528	0.9988	0.9933	5.978179	24.07730
366	15.83633	3.1237453	0.9836	0.9782	5.978091	24.07773
367	15.86029	3.1372351	0.9806	0.9752	5.971541	24.17794
368	15.87808	3.1545014	0.9836	0.9782	5.964447	24.31398
369	15.87050	3.1708494	1.0019	0.9964	5.960146	24.45780
370	15.83890	3.1806864	1.0050	0.9994	5.960218	24.56113
371	15.80851	3.1694927	1.0141	1.0086	5.966680	24.48443
372	15.79628	3.1477743	1.0080	1.0025	5.974620	24.30675
373	15.77742	3.1443384	0.9898	0.9843	5.977555	24.28901
374	15.77046	3.1513172	0.9838	0.9783	5.976079	24.35280
375	15.78892	3.1762633	0.9807	0.9753	5.966513	24.55431
376	15.78787	3.1927722	0.9929	0.9874	5.961498	24.69594
377	15.76744	3.2013097	1.0051	0.9996	5.960859	24.78164
378	15.74905	3.1960920	1.0112	1.0056	5.964288	24.74850
379	15.74374	3.1835053	1.0051	0.9996	5.968723	24.64419
380	15.73882	3.1732127	1.0051	0.9996	5.972408	24.55926
381	15.72799	3.1674734	0.9991	0.9936	5.975263	24.51691
382	15.71710	3.1698841	0.9930	0.9875	5.975590	24.54426
383	15.71055	3.1840830	0.9930	0.9876	5.971818	24.66977
384	15.70851	3.2040605	0.9961	0.9906	5.965800	24.84206
385	15.70543	3.2080817	0.9961	0.9906	5.964851	24.87844
386	15.69934	3.2077269	1.0022	0.9967	5.965562	24.87922
387	15.69416	3.1980450	0.9992	0.9937	5.969087	24.79953
388	15.69547	3.1836610	0.9931	0.9876	5.973438	24.67555
389	15.69553	3.1824132	0.9901	0.9846	5.973821	24.66483
390	15.69390	3.2037869	0.9932	0.9877	5.967324	24.84888
391	15.69127	3.2168342	1.0053	0.9998	5.963518	24.96234
392	15.68243	3.2197829	1.0053	0.9998	5.963468	24.99320
393	15.67680	3.1999670	1.0084	1.0028	5.970199	24.82687
394	15.67745	3.1831149	0.9901	0.9847	5.975389	24.68210
395	15.67542	3.1849836	0.9932	0.9878	5.975007	24.69936
396	15.69540	3.2085550	0.9932	0.9878	5.965691	24.88879
397	15.70760	3.2273802	0.9963	0.9909	5.958632	25.04246
398	15.70307	3.2297270	0.9994	0.9939	5.958345	25.06544
399	15.70137	3.2147153	0.9963	0.9908	5.963186	24.93783
400	15.70661	3.2018889	0.9994	0.9939	5.966663	24.82465
401	15.70242	3.2076708	0.9933	0.9878	5.965276	24.87681
402	15.69875	3.2294461	0.9934	0.9879	5.958857	25.06577
403	15.69894	3.2359591	0.9964	0.9909	5.956810	25.12151
404	15.70130	3.2394580	1.0056	1.0000	5.955489	25.15003
405	15.70399	3.2350658	1.0086	1.0031	5.956594	25.11064
406	15.71173	3.2219339	0.9964	0.9910	5.959922	24.99317
407	15.71835	3.2145905	0.9965	0.9910	5.961556	24.92608
408	15.72025	3.2196266	0.9934	0.9880	5.959803	24.96803
409	15.72215	3.2359901	0.9965	0.9910	5.954527	25.10707
410	15.72497	3.2404765	0.9996	0.9941	5.952856	25.14374
411	15.73134	3.2395140	1.0026	0.9971	5.952533	25.13145
412	15.73849	3.2342597	0.9996	0.9941	5.953466	25.08189
413	15.74374	3.2269492	0.9996	0.9941	5.955223	25.01595
414	15.74827	3.2232558	0.9936	0.9881	5.955927	24.98146
415	15.75221	3.2292583	0.9966	0.9911	5.953677	25.03038
416	15.75536	3.2369768	0.9966	0.9912	5.950972	25.09450
417	15.75798	3.2420264	0.9997	0.9942	5.949147	25.13610
418	15.76061	3.2410324	0.9967	0.9912	5.949199	25.12592
419	15.76389	3.2401948	1.0028	0.9973	5.949138	25.11666
420	15.76737	3.2392699	1.0027	0.9972	5.949085	25.10654
421	15.77125	3.2319425	0.9998	0.9943	5.950980	25.04134
422	15.77394	3.2251956	0.9968	0.9913	5.952809	24.98190
423	15.77545	3.2325919	0.9968	0.9913	5.950367	25.04425
424	15.77769	3.2380325	0.9968	0.9913	5.948461	25.08942
425	15.77946	3.2301257	1.0059	1.0004	5.950740	25.02061
426	15.78123	3.2275666	1.0059	1.0004	5.951360	24.99759
427	15.78583	3.2234986	1.0120	1.0065	5.952171	24.95989
428	15.79063	3.2156054	1.0030	0.9974	5.954148	24.88937
429	15.79037	3.2158485	0.9938	0.9884	5.954098	24.89161
430	15.79569	3.2234362	0.9908	0.9854	5.951225	24.95316
431	15.80161	3.2190397	0.9969	0.9914	5.952007	24.91185
432	15.79865	3.2107896	1.0091	1.0035	5.954854	24.84317
433	15.77795	3.2072716	1.0121	1.0066	5.957976	24.82605
434	15.76041	3.2110080	1.0061	1.0005	5.958539	24.86899
435	15.75772	3.2058338	1.0031	0.9976	5.960410	24.82641
436	15.74840	3.2045206	0.9970	0.9915	5.961734	24.82102
437	15.74617	3.2079443	0.9970	0.9915	5.960889	24.85171
438	15.74741	3.2050995	1.0032	0.9977	5.961651	24.82658
439	15.73711	3.2047324	1.0092	1.0037	5.962778	24.82989
440	15.71855	3.2047326	1.0093	1.0037	5.964604	24.84152
441	15.71350	3.2043032	1.0032	0.9977	5.965234	24.84101
442	15.70799	3.2025920	1.0032	0.9977	5.966309	24.82981
443	15.69468	3.2024055	1.0063	1.0007	5.967677	24.83655
444	15.68302	3.2029593	0.9972	0.9917	5.968653	24.84861
445	15.68236	3.2039674	0.9972	0.9917	5.968404	24.85766
446	15.68603	3.2059839	1.0002	0.9947	5.967414	24.87264
447	15.68643	3.2084057	0.9972	0.9917	5.966621	24.89315
448	15.67942	3.2101182	1.0033	0.9978	5.966777	24.91223
449	15.66972	3.2110961	1.0064	1.0008	5.967426	24.92672
450	15.66186	3.2094770	1.0064	1.0009	5.968704	24.91777
451	15.66095	3.2071172	1.0033	0.9978	5.969531	24.89811
452	15.66016	3.2066565	1.0034	0.9979	5.969752	24.89466
453	15.65748	3.2073040	1.0034	0.9979	5.969814	24.90190
454	15.65558	3.2089228	1.0034	0.9979	5.969496	24.91698
455	15.65505	3.2120804	1.0034	0.9979	5.968562	24.94439
456	15.65348	3.2144541	1.0035	0.9979	5.967976	24.96575
457	15.64936	3.2139183	1.0065	1.0010	5.968549	24.96375
458	15.64628	3.2097511	1.0005	0.9950	5.970153	24.92993
459	15.64687	3.2065072	0.9944	0.9889	5.971107	24.90173
460	15.64812	3.2087112	1.0005	0.9950	5.970297	24.91986
461	15.64956	3.2149588	1.0036	0.9981	5.968205	24.97256
462	15.65054	3.2171401	1.0035	0.9980	5.967427	24.99066
463	15.65067	3.2153265	0.9975	0.9920	5.967980	24.97501
464	15.65591	3.2124479	1.0006	0.9951	5.968364	24.94701
465	15.66134	3.2119246	1.0037	0.9981	5.967992	24.93910
466	15.66435	3.2131206	0.9946	0.9891	5.967323	24.94746
467	15.66632	3.2158186	0.9976	0.9921	5.966288	24.96937
468	15.66658	3.2189539	1.0037	0.9982	5.965284	24.99610
469	15.66448	3.2194152	0.9946	0.9891	5.965346	25.00138
470	15.66010	3.2180313	1.0037	0.9982	5.966209	24.99227
471	15.65924	3.2147157	1.0007	0.9952	5.967327	24.96436
472	15.66219	3.2118000	1.0068	1.0013	5.967947	24.93749
473	15.66435	3.2122921	1.0008	0.9953	5.967581	24.94036
474	15.66638	3.2160679	0.9977	0.9923	5.966204	24.97146
475	15.66730	3.2203318	0.9978	0.9923	5.964784	25.00746
476	15.66619	3.2216849	1.0008	0.9953	5.964471	25.01978
477	15.66448	3.2214729	1.0009	0.9954	5.964705	25.01903
478	15.66553	3.2200574	1.0009	0.9954	5.965043	25.00623
479	15.66992	3.2186110	0.9917	0.9863	5.965063	24.99105
480	15.67490	3.2205499	0.9948	0.9893	5.963969	25.00454
481	15.67660	3.2233189	0.9888	0.9833	5.962939	25.02722
482	15.66723	3.2285539	1.0070	1.0015	5.962226	25.07806
483	15.64236	3.2333052	1.0040	0.9985	5.963185	25.13463
484	15.61632	3.2328746	1.0101	1.0046	5.965875	25.14746
485	15.60652	3.2237812	0.9980	0.9925	5.969682	25.07553
486	15.60501	3.2174460	1.0010	0.9955	5.971812	25.02205
487	15.59416	3.2192913	1.0010	0.9955	5.972303	25.04477
488	15.58489	3.2323191	1.0011	0.9956	5.969137	25.16268
489	15.57594	3.2406031	1.0010	0.9955	5.967422	25.23966
490	15.56464	3.2423660	1.0041	0.9986	5.967979	25.26205
491	15.56222	3.2300343	1.0011	0.9956	5.972081	25.15744
492	15.56229	3.2245178	1.0042	0.9986	5.973804	25.10992
493	15.55537	3.2289857	1.0012	0.9957	5.973084	25.15277
494	15.55654	3.2366728	1.0011	0.9956	5.970559	25.21820
495	15.55981	3.2408783	1.0012	0.9957	5.968920	25.25233
496	15.56359	3.2378473	1.0012	0.9957	5.969498	25.22381
497	15.56914	3.2349735	0.9983	0.9928	5.969853	25.19554
498	15.57476	3.2383720	0.9922	0.9867	5.968236	25.22121
499	15.57731	3.2458987	0.9952	0.9897	5.965629	25.28437
500	15.57241	3.2512103	0.9952	0.9898	5.964446	25.33324
501	15.56157	3.2540083	1.0044	0.9988	5.964631	25.36429
502	15.55191	3.2538519	1.0013	0.9958	5.965627	25.36914
503	15.54845	3.2524497	1.0014	0.9959	5.966406	25.35928
504	15.55067	3.2522620	0.9984	0.9929	5.966247	25.35624
505	15.55374	3.2533510	1.0044	0.9989	5.965605	25.36365
506	15.55569	3.2564001	1.0014	0.9959	5.964457	25.38867
507	15.55537	3.2580221	0.9984	0.9929	5.963981	25.40286
508	15.55165	3.2582413	0.9893	0.9838	5.964276	25.40714
509	15.54662	3.2590181	0.9954	0.9899	5.964525	25.41706
510	15.54173	3.2602021	0.9984	0.9930	5.964633	25.43042
511	15.53670	3.2628212	1.0015	0.9960	5.964304	25.45624
512	15.54055	3.2045788	1.0046	0.9990	5.982202	24.95216
513	15.60207	3.1801427	1.0046	0.9991	5.983775	24.70363
514	15.66389	3.1907974	1.0015	0.9960	5.974332	24.75636
515	15.69376	3.1839590	0.9924	0.9870	5.973514	24.67916
516	15.71350	3.1675665	0.9955	0.9901	5.976668	24.52667
517	15.73777	3.1685019	0.9955	0.9901	5.973976	24.51966
518	15.75529	3.1711853	0.9986	0.9931	5.971410	24.53175
519	15.76310	3.1697969	0.9986	0.9931	5.971069	24.51506
520	15.76744	3.1768094	1.0078	1.0022	5.968464	24.57226
521	15.76586	3.1628893	0.9987	0.9932	5.972941	24.45438
522	15.77801	3.1510698	0.9926	0.9871	5.975408	24.34605
523	15.80805	3.1335880	0.9987	0.9932	5.977851	24.17869
524	15.84785	3.1448506	0.9927	0.9872	5.970419	24.25032
525	15.86451	3.1291519	0.9927	0.9872	5.973622	24.10663
526	15.90062	3.0868910	0.9987	0.9933	5.983083	23.72607
527	15.96925	3.0975241	1.0018	0.9963	5.972974	23.77520
528	15.99231	3.1219935	0.9988	0.9933	5.963165	23.96864
529	15.97493	3.1374562	0.9989	0.9934	5.960133	24.11022
530	15.94264	3.1243359	0.9958	0.9904	5.967364	24.01844
531	15.94284	3.0730176	0.9989	0.9934	5.983148	23.58343
532	15.99284	3.0735868	0.9989	0.9934	5.977984	23.55864
533	16.03928	3.0844971	0.9989	0.9934	5.970012	23.62335
534	16.05742	3.0841473	1.0020	0.9965	5.968316	23.60965
535	16.06398	3.0914678	0.9990	0.9935	5.965423	23.66758
536	16.06033	3.0768088	0.9959	0.9905	5.970274	23.54597
537	16.06874	3.0944151	0.9899	0.9844	5.964048	23.68965
538	16.06139	3.1071005	0.9930	0.9875	5.960893	23.80120
539	16.03775	3.1035894	0.9991	0.9936	5.964311	23.78563
540	16.02505	3.1109030	1.0021	0.9966	5.963328	23.85509
541	16.01248	3.1164740	1.0052	0.9996	5.962864	23.90977
542	15.99820	3.1109155	1.0113	1.0057	5.965985	23.87128
543	15.99436	3.1231212	1.0752	1.0693	5.962617	23.97694
544	15.97526	3.1766336	1.1970	1.1904	5.948062	24.44254
545	15.89047	3.2598853	1.3522	1.3447	5.930719	25.20480
546	15.72648	3.2932171	1.5469	1.5384	5.936322	25.59534
547	15.56438	3.3069591	1.7599	1.7503	5.947777	25.81893
548	15.43872	3.3265104	1.9760	1.9651	5.953848	26.07057
549	15.31832	3.3497898	2.2043	2.1921	5.958190	26.35281
550	15.20466	3.3489555	2.4263	2.4130	5.969508	26.42172
551	15.12894	3.3592614	2.6485	2.6340	5.973593	26.56280
552	15.04875	3.3916950	2.8646	2.8489	5.970999	26.90169
553	14.91237	3.3983848	3.0899	3.0729	5.982096	27.05444
554	14.78935	3.4155724	3.3180	3.2998	5.988493	27.29171
555	14.68783	3.4210354	3.5463	3.5268	5.996596	27.41124
556	14.61175	3.4344371	3.7806	3.7598	5.999621	27.58396
557	14.50928	3.4522908	3.9906	3.9686	6.003729	27.81599
558	14.34406	3.4569377	4.2249	4.2016	6.018293	27.97626
559	14.15933	3.4790321	4.4501	4.4256	6.028955	28.30924
560	14.02027	3.4868429	4.6723	4.6465	6.039920	28.48207
561	13.91426	3.4852304	4.9066	4.8796	6.050850	28.54583
562	13.79707	3.4707269	5.1257	5.0974	6.067308	28.50081
563	13.56433	3.4724114	5.3357	5.3063	6.089730	28.68966
564	13.31741	3.4689611	5.5639	5.5333	6.115467	28.84381
565	13.11570	3.4655437	5.7739	5.7421	6.136827	28.96530
566	12.95392	3.4615437	5.9960	5.9630	6.154491	29.05171
567	12.81430	3.4591091	6.2181	6.1839	6.169438	29.13620
568	12.69937	3.4570531	6.4312	6.3957	6.181804	29.20561
569	12.60251	3.4560802	6.6503	6.6137	6.191980	29.27147
570	12.52264	3.4574013	6.8785	6.8406	6.199619	29.34595
571	12.46058	3.4572482	7.1129	7.0737	6.205991	29.39285
572	12.41453	3.4559800	7.3350	7.2946	6.211150	29.41682
573	12.37666	3.4560446	7.5572	7.5155	6.214992	29.44701
574	12.34574	3.4557246	7.7763	7.7334	6.218269	29.46816
575	12.32505	3.4557826	7.9862	7.9422	6.220364	29.48488
576	12.30967	3.4553791	8.2114	8.1661	6.222087	29.49306
577	12.29429	3.4546169	8.4305	8.3841	6.223942	29.49785
578	12.27541	3.4536370	8.6466	8.5989	6.226237	29.50334
579	12.25178	3.4524843	8.8657	8.8168	6.229084	29.51093
580	12.22495	3.4516136	9.0817	9.0317	6.232157	29.52372
581	12.19886	3.4505892	9.3040	9.2527	6.235213	29.53449
582	12.17510	3.4494369	9.5231	9.4706	6.238080	29.54221
583	12.15230	3.4488290	9.7422	9.6884	6.240649	29.55434
584	12.13278	3.4484899	9.9582	9.9033	6.242782	29.56645
585	12.11837	3.4476963	10.1712	10.1151	6.244561	29.57022
586	12.10533	3.4467811	10.3934	10.3361	6.246245	29.57174
587	12.09194	3.4459364	10.6186	10.5600	6.247940	29.57420
588	12.07802	3.4456166	10.8468	10.7869	6.249495	29.58209
589	12.06434	3.4445736	11.0751	11.0139	6.251294	29.58289
590	12.04706	3.4436588	11.3064	11.2440	6.253419	29.58777
591	12.02546	3.4428529	11.5285	11.4649	6.255948	29.59711
592	12.00117	3.4414265	11.7446	11.6798	6.258990	29.60269
593	11.96808	3.4404290	11.9637	11.8976	6.262781	29.61933
594	11.93043	3.4397259	12.1798	12.1125	6.266937	29.64243
595	11.89169	3.4398351	12.3989	12.3304	6.270905	29.67421
596	11.85635	3.4391896	12.6180	12.5483	6.274809	29.69610
597	11.82270	3.4384098	12.8341	12.7632	6.278593	29.71539
598	11.78454	3.4378987	13.0592	12.9871	6.282745	29.74087
599	11.74866	3.4378160	13.2783	13.2050	6.286504	29.76870
600	11.72490	3.4378100	13.4944	13.4198	6.288977	29.78759
601	11.71135	3.4376503	13.7166	13.6408	6.290449	29.79683
602	11.70361	3.4374011	13.9357	13.8586	6.291351	29.80055
603	11.69827	3.4373181	14.1487	14.0705	6.291940	29.80395
604	11.69159	3.4378682	14.3617	14.2823	6.292429	29.81452
605	11.68385	3.4383799	14.5809	14.5003	6.293043	29.82557
606	11.67876	3.4383481	14.7939	14.7121	6.293588	29.82927
607	11.67366	3.4382523	15.0130	14.9300	6.294158	29.83236
608	11.66751	3.4378176	15.2382	15.1539	6.294966	29.83303
609	11.65908	3.4375556	15.4543	15.3688	6.295946	29.83720
610	11.64901	3.4373511	15.6794	15.5927	6.297075	29.84323
611	11.63625	3.4362963	15.8955	15.8076	6.298808	29.84325
612	11.61630	3.4352034	16.1177	16.0285	6.301305	29.84868
613	11.59156	3.4348201	16.3307	16.2404	6.304032	29.86480
614	11.56918	3.4345712	16.5589	16.4672	6.306465	29.88034
615	11.55207	3.4342262	16.7750	16.6822	6.308385	29.89072
616	11.53748	3.4339452	16.9910	16.8970	6.310019	29.89969
617	11.52475	3.4338496	17.2224	17.1270	6.311387	29.90894
618	11.51501	3.4337475	17.4384	17.3419	6.312447	29.91574
619	11.50743	3.4335367	17.6727	17.5749	6.313324	29.91973
620	11.50125	3.4331534	17.9162	17.8170	6.314120	29.92093
621	11.49483	3.4327828	18.1475	18.0470	6.314936	29.92244
622	11.48755	3.4325593	18.3697	18.2679	6.315787	29.92608
623	11.48044	3.4322591	18.5948	18.4918	6.316649	29.92883
624	11.47263	3.4318694	18.8201	18.7158	6.317618	29.93129
625	11.46331	3.4314031	19.0300	18.9246	6.318776	29.93423
626	11.45183	3.4308665	19.2522	19.1455	6.320186	29.93823
627	11.43879	3.4304770	19.4653	19.3574	6.321704	29.94493
628	11.42750	3.4304580	19.6995	19.5903	6.322897	29.95379
629	11.41930	3.4301771	19.9247	19.8143	6.323868	29.95763
630	11.41121	3.4300494	20.1347	20.0231	6.324767	29.96286
631	11.40202	3.4300496	20.3569	20.2440	6.325734	29.97022
632	11.39307	3.4283888	20.5790	20.4650	6.327316	29.96129
633	11.37940	3.4274756	20.7981	20.6828	6.329104	29.96342
634	11.36366	3.4280123	21.0203	20.9038	6.330552	29.98131
635	11.34954	3.4281020	21.2485	21.1307	6.332002	29.99354
636	11.33822	3.4276040	21.4707	21.3517	6.333386	29.99781
637	11.32870	3.4264737	21.6989	21.5786	6.334827	29.99448
638	11.31599	3.4245709	21.9181	21.7965	6.336901	29.98624
639	11.29569	3.4233134	22.1402	22.0174	6.339526	29.99043
640	11.27331	3.4222987	22.3593	22.2352	6.342277	29.99866
641	11.25454	3.4221266	22.5845	22.4592	6.344323	30.01216
642	11.24099	3.4219034	22.8158	22.6892	6.345841	30.02093
643	11.23155	3.4217185	23.0350	22.9071	6.346910	30.02672
644	11.22322	3.4211761	23.2571	23.1280	6.348003	30.02814
645	11.21344	3.4203849	23.4792	23.3489	6.349345	30.02832
646	11.19863	3.4194980	23.7044	23.5728	6.351255	30.03166
647	11.17949	3.4186113	23.9144	23.7816	6.353623	30.03853
648	11.15972	3.4184649	24.1427	24.0087	6.355770	30.05313
649	11.14436	3.4177250	24.3679	24.2326	6.357685	30.05836
650	11.12992	3.4173743	24.5900	24.4535	6.359351	30.06664
651	11.11595	3.4167685	24.8152	24.6774	6.361068	30.07204
652	11.10066	3.4150592	25.0405	24.9014	6.363357	30.06776
653	11.07955	3.4132482	25.2535	25.1132	6.366304	30.06724
654	11.05102	3.4119415	25.4756	25.3341	6.369842	30.07770
655	11.02004	3.4102269	25.6947	25.5520	6.373803	30.08619
656	10.98673	3.4082323	25.9139	25.7699	6.378127	30.09386
657	10.94643	3.4042759	26.1391	25.9938	6.383973	30.08803
658	10.88237	3.4015187	26.3612	26.2147	6.391887	30.11344
659	10.80720	3.3953380	26.5956	26.4478	6.402366	30.11438
660	10.71681	3.3942446	26.8177	26.6686	6.412477	30.17795
661	10.64590	3.3932210	27.0277	26.8774	6.420493	30.22634
662	10.59896	3.3918156	27.2529	27.1014	6.426100	30.25121
663	10.55714	3.3898825	27.4781	27.3253	6.431378	30.26666
664	10.51287	3.3888210	27.6942	27.5402	6.436575	30.29281
665	10.47393	3.3881348	27.9316	27.7762	6.441053	30.31828
666	10.44506	3.3876201	28.1841	28.0274	6.444380	30.33710
667	10.42222	3.3859547	28.4155	28.2574	6.447524	30.33950
668	10.38762	3.3801467	28.6376	28.4783	6.453626	30.31052
669	10.31884	3.3695638	28.8567	28.6962	6.465392	30.26241
670	10.21850	3.3608701	29.0850	28.9231	6.479868	30.25925
671	10.11045	3.3587101	29.3042	29.1411	6.492557	30.32784
672	10.01250	3.3581345	29.5202	29.3559	6.503518	30.40414
673	9.93550	3.3530421	29.7515	29.5859	6.514085	30.41766
674	9.86458	3.3480603	29.9705	29.8037	6.523969	30.42720
675	9.78921	3.3457639	30.1897	30.0217	6.533244	30.46758
676	9.72183	3.3454610	30.4179	30.2486	6.540819	30.52146
677	9.67346	3.3462968	30.6371	30.4665	6.545820	30.57088
678	9.64364	3.3467466	30.8684	30.6966	6.548936	30.60070
679	9.62243	3.3457027	31.0814	30.9084	6.551729	30.60808
680	9.59292	3.3410345	31.3037	31.1293	6.556982	30.58576
681	9.55108	3.3413260	31.5258	31.3502	6.561508	30.62428
682	9.51891	3.3428950	31.7479	31.5710	6.564418	30.66760
683	9.49811	3.3408270	31.9670	31.7889	6.567615	30.66426
684	9.47102	3.3399484	32.1953	32.0160	6.571007	30.67839
685	9.43521	3.3387285	32.4144	32.2338	6.575518	30.69652
686	9.39569	3.3398229	32.6335	32.4517	6.579458	30.74147
687	9.35897	3.3408288	32.8526	32.6695	6.583126	30.78320
688	9.32079	3.3395646	33.0779	32.8936	6.587934	30.80304
689	9.28122	3.3385092	33.2939	33.1083	6.592813	30.82626
690	9.24203	3.3358230	33.5161	33.3293	6.598361	30.83247
691	9.19408	3.3341931	33.7444	33.5563	6.604440	30.85708
692	9.14615	3.3328351	33.9574	33.7681	6.610410	30.88452
693	9.10336	3.3308014	34.1796	33.9890	6.616104	30.90060
694	9.06297	3.3290145	34.4079	34.2160	6.621429	30.91715
695	9.02273	3.3277077	34.6209	34.4278	6.626534	30.93855
696	8.98379	3.3253154	34.8430	34.6487	6.631975	30.94765
697	8.94347	3.3235295	35.0561	34.8606	6.637313	30.96422
698	8.90308	3.3204443	35.2874	35.0906	6.643238	30.96744
699	8.85425	3.3158340	35.5035	35.3054	6.650802	30.96224
700	8.78885	3.3102434	35.7348	35.5354	6.660699	30.96131
701	8.70052	3.3073650	35.9509	35.7503	6.672032	31.00858
702	8.62125	3.3057596	36.1669	35.9651	6.681792	31.06130
703	8.55240	3.3050865	36.3800	36.1770	6.689965	31.11475
704	8.49257	3.3032799	36.6052	36.4009	6.697629	31.14854
705	8.43665	3.3023613	36.8213	36.6158	6.704458	31.18826
706	8.38957	3.3011972	37.0465	36.8397	6.710392	31.21765
707	8.34566	3.2999325	37.2596	37.0516	6.716016	31.24323
708	8.30405	3.2978625	37.4908	37.2815	6.721747	31.25834
709	8.26303	3.2959188	37.7069	37.4964	6.727363	31.27429
710	8.22252	3.2934598	37.9261	37.7142	6.733161	31.28437
711	8.18158	3.2911902	38.1422	37.9291	6.738933	31.29684
712	8.14095	3.2896503	38.3644	38.1501	6.744343	31.31675
713	8.10302	3.2880730	38.5926	38.3770	6.749464	31.33387
714	8.06833	3.2845857	38.8026	38.5858	6.755094	31.32793
715	8.02995	3.2819478	39.0460	38.8279	6.760772	31.33426
716	7.98941	3.2820111	39.2591	39.0398	6.765461	31.37113
717	7.95445	3.2762601	39.4843	39.2637	6.772196	31.34142
718	7.90512	3.2634469	39.7126	39.4906	6.783900	31.24960
719	7.81798	3.2547221	39.9257	39.7025	6.798180	31.23478
720	7.72104	3.2527012	40.1449	39.9204	6.810531	31.30008
721	7.64992	3.2519571	40.3669	40.1412	6.819267	31.35601
722	7.60375	3.2506184	40.5860	40.3591	6.825351	31.38323
723	7.57007	3.2500619	40.8144	40.5861	6.829598	31.40758
724	7.54379	3.2511198	41.0366	40.8071	6.832210	31.44257
725	7.52984	3.2572490	41.2556	41.0249	6.830961	31.52081
726	7.53621	3.2602369	41.4839	41.2519	6.828799	31.54695
727	7.54716	3.2600489	41.7031	41.4698	6.827600	31.53490
728	7.55211	3.2615463	41.9191	41.6846	6.826312	31.54636
729	7.55901	3.2631380	42.1444	41.9086	6.824750	31.55705
730	7.56955	3.2649494	42.3605	42.1234	6.822656	31.56679
731	7.58203	3.2670432	42.5826	42.3443	6.820200	31.57777
732	7.59737	3.2700720	42.8140	42.5743	6.816970	31.59617
733	7.61720	3.2761769	43.0270	42.7862	6.811766	31.64340
734	7.64644	3.2817962	43.2523	43.0102	6.805695	31.67682
735	7.67849	3.2793907	43.4654	43.2220	6.803072	31.62187
736	7.68594	3.2754232	43.6784	43.4338	6.804066	31.57262
737	7.66724	3.2716022	43.9005	43.6547	6.808060	31.54865
738	7.63435	3.2687299	44.1196	43.8725	6.813280	31.54765
739	7.59737	3.2667928	44.3388	44.0905	6.818548	31.56037
740	7.56380	3.2636088	44.5670	44.3174	6.824011	31.55664
741	7.52747	3.2581207	44.7892	44.5383	6.830899	31.53070
742	7.48103	3.2547585	44.9993	44.7472	6.837989	31.53671
743	7.43111	3.2503776	45.2213	44.9680	6.845989	31.53491
744	7.38006	3.2487013	45.4375	45.1829	6.852851	31.56324
745	7.33713	3.2482327	45.6567	45.4009	6.858180	31.59723
746	7.30901	3.2480829	45.8789	45.6217	6.861600	31.62119
747	7.29158	3.2472449	46.1010	45.8427	6.864080	31.62797
748	7.27730	3.2467134	46.3171	46.0575	6.866040	31.63519
749	7.26041	3.2463759	46.5211	46.2603	6.868218	31.64691
750	7.24033	3.2468703	46.7463	46.4842	6.870376	31.67052
751	7.22126	3.2474273	46.9533	46.6900	6.872385	31.69392
752	7.20659	3.2477403	47.1694	46.9049	6.873988	31.71067
753	7.19630	3.2479594	47.3824	47.1167	6.875113	31.72239
754	7.18847	3.2476781	47.5924	47.3255	6.876187	31.72644
755	7.17965	3.2479910	47.7994	47.5313	6.877092	31.73783
756	7.16301	3.2483603	48.0216	47.7522	6.878904	31.75703
757	7.13813	3.2490739	48.2346	47.9640	6.881532	31.78755
758	7.11234	3.2490742	48.4478	48.1760	6.884616	31.81123
759	7.09426	3.2490119	48.6730	48.3999	6.886810	31.82712
760	7.08249	3.2490121	48.9011	48.6267	6.888221	31.83788
761	7.07411	3.2492000	49.1143	48.8387	6.889136	31.84756
762	7.06511	3.2496069	49.3334	49.0565	6.890019	31.86019
763	7.05507	3.2497885	49.5435	49.2654	6.891135	31.87135
764	7.04550	3.2502580	49.7657	49.4863	6.892056	31.88521
765	7.03910	3.2499515	49.9756	49.6950	6.892975	31.88770
766	7.03307	3.2493885	50.1887	49.9069	6.893975	31.88706
767	7.02584	3.2496389	50.4078	50.1248	6.894722	31.89637
768	7.01997	3.2505401	50.6330	50.3487	6.894991	31.91151
769	7.01747	3.2517167	50.8461	50.5606	6.894721	31.92652
770	7.01690	3.2524616	51.0684	50.7816	6.894431	31.93505
771	7.01513	3.2525869	51.2814	50.9933	6.894586	31.93795
772	7.00973	3.2526496	51.4975	51.2082	6.895206	31.94354
773	7.00224	3.2524620	51.7198	51.4292	6.896197	31.94834
774	6.99466	3.2522180	51.9450	51.6531	6.897228	31.95262
775	6.98682	3.2517801	52.1610	51.8679	6.898385	31.95503
776	6.97892	3.2517802	52.3741	52.0798	6.899334	31.96226
777	6.97202	3.2516865	52.5841	52.2886	6.900211	31.96755
778	6.96262	3.2516553	52.8064	52.5096	6.901356	31.97584
779	6.95219	3.2520310	53.0133	52.7153	6.902427	31.98953
780	6.94388	3.2525883	53.2325	52.9332	6.903153	32.00322
781	6.93755	3.2531204	53.4455	53.1450	6.903656	32.01481
782	6.93366	3.2531832	53.6677	53.3659	6.904096	32.01901
783	6.93149	3.2532771	53.8838	53.5808	6.904315	32.02197
784	6.92925	3.2535214	54.1061	53.8018	6.904468	32.02660
785	6.92464	3.2541788	54.3161	54.0106	6.904703	32.03797
786	6.91743	3.2550492	54.5352	54.2284	6.905145	32.05409
787	6.91054	3.2558258	54.7513	54.4433	6.905596	32.06889
788	6.90468	3.2565084	54.9643	54.6551	6.905968	32.08170
789	6.89981	3.2568843	55.1835	54.8730	6.906372	32.09025
790	6.89530	3.2571349	55.4028	55.0910	6.906794	32.09710
791	6.89131	3.2571037	55.6279	55.3149	6.907292	32.10037
792	6.88794	3.2569472	55.8288	55.5146	6.907776	32.10172
793	6.88441	3.2568534	56.0541	55.7386	6.908249	32.10388
794	6.88063	3.2564465	56.2703	55.9535	6.908906	32.10286
795	6.87582	3.2561272	56.4894	56.1714	6.909645	32.10377
796	6.86965	3.2554511	56.7055	56.3863	6.910720	32.10204
797	6.86095	3.2551445	56.9124	56.5920	6.911918	32.10672
798	6.85106	3.2552072	57.1317	56.8099	6.913078	32.11655
799	6.84216	3.2552387	57.3448	57.0218	6.914135	32.12512
800	6.83543	3.2553265	57.5638	57.2396	6.914904	32.13227
801	6.83088	3.2553579	57.7831	57.4576	6.915439	32.13677
802	6.82710	3.2554520	57.9962	57.6694	6.915851	32.14123
803	6.82343	3.2555773	58.2153	57.8873	6.916235	32.14594
804	6.82006	3.2556713	58.4435	58.1142	6.916597	32.15001
805	6.81758	3.2558280	58.6475	58.3171	6.916822	32.15395
806	6.81536	3.2560159	58.8727	58.5409	6.917001	32.15798
807	6.81365	3.2559847	59.1071	58.7740	6.917227	32.15913
808	6.81251	3.2560787	59.3415	59.0070	6.917322	32.16111
809	6.81158	3.2561414	59.5577	59.2219	6.917407	32.16257
810	6.81075	3.2562041	59.7768	59.4398	6.917480	32.16393
811	6.80956	3.2562981	59.9899	59.6516	6.917581	32.16597
812	6.80781	3.2568555	60.2060	59.8665	6.917523	32.17362
813	6.80341	3.2579454	60.4191	60.0784	6.917518	32.18957
814	6.79757	3.2584466	60.6382	60.2963	6.917977	32.20044
815	6.79230	3.2588163	60.8513	60.5081	6.918432	32.20933
816	6.78718	3.2597811	61.0797	60.7351	6.918576	32.22460
817	6.77968	3.2602511	61.2896	60.9439	6.919248	32.23669
818	6.77100	3.2603014	61.5149	61.1679	6.920270	32.24529
819	6.76284	3.2602514	61.7250	61.3768	6.921279	32.25232
820	6.75612	3.2606901	61.9472	61.5977	6.921873	32.26334
821	6.75070	3.2609408	62.1634	61.8126	6.922405	32.27109
822	6.74647	3.2610036	62.3795	62.0275	6.922887	32.27566
823	6.74296	3.2609411	62.6017	62.2484	6.923344	32.27817
824	6.73888	3.2609725	62.8331	62.4784	6.923824	32.28225
825	6.73418	3.2610290	63.0461	62.6901	6.924364	32.28719
826	6.72964	3.2612484	63.2532	62.8960	6.924806	32.29378
827	6.72551	3.2613738	63.4663	63.1079	6.925244	32.29894
828	6.72164	3.2614993	63.6854	63.3257	6.925652	32.30386
829	6.71720	3.2619067	63.9045	63.5436	6.925988	32.31241
830	6.71302	3.2621888	64.1237	63.7616	6.926355	32.31935
831	6.71003	3.2625586	64.3430	63.9795	6.926537	32.32613
832	6.70827	3.2626840	64.5591	64.1943	6.926690	32.32906
833	6.70673	3.2625901	64.7813	64.4153	6.926927	32.32938
834	6.70306	3.2624649	65.0035	64.6363	6.927434	32.33135
835	6.69816	3.2624337	65.2105	64.8420	6.928042	32.33553
836	6.69409	3.2622834	65.4297	65.0599	6.928611	32.33762
837	6.69089	3.2622020	65.6428	65.2718	6.929040	32.33965
838	6.68764	3.2620643	65.8619	65.4896	6.929504	32.34110
839	6.68429	3.2620957	66.0812	65.7076	6.929896	32.34450
840	6.68161	3.2625282	66.2911	65.9164	6.930008	32.35169
841	6.67872	3.2632176	66.4952	66.1192	6.930018	32.36189
842	6.67728	3.2637191	66.7173	66.3400	6.929948	32.36866
843	6.67790	3.2643397	66.9304	66.5520	6.929570	32.37480
844	6.67965	3.2646845	67.1466	66.7668	6.929193	32.37683
845	6.68166	3.2648099	67.3566	66.9756	6.928894	32.37621
846	6.68280	3.2649666	67.5667	67.1845	6.928685	32.37676
847	6.68372	3.2650294	67.7859	67.4024	6.928547	32.37647
848	6.68388	3.2650921	68.0020	67.6173	6.928502	32.37691
849	6.68388	3.2652176	68.2121	67.8261	6.928444	32.37819
850	6.68403	3.2652176	68.4375	68.0502	6.928430	32.37793
851	6.68310	3.2652177	68.6627	68.2742	6.928547	32.37871
852	6.68187	3.2652178	68.8666	68.4768	6.928700	32.37978
853	6.68073	3.2653119	69.0797	68.6887	6.928794	32.38178
854	6.67955	3.2654060	69.3081	68.9158	6.928894	32.38383
855	6.67836	3.2654312	69.5424	69.1488	6.929029	32.38512
856	6.67666	3.2654062	69.7860	69.3908	6.929251	32.38633
857	6.67398	3.2655567	69.9930	69.5967	6.929503	32.39043
858	6.67171	3.2655568	70.2092	69.8116	6.929780	32.39247
859	6.66955	3.2655569	70.4222	70.0234	6.930045	32.39442
860	6.66805	3.2657137	70.6353	70.2352	6.930151	32.39745
861	6.66697	3.2657452	70.8454	70.4441	6.930270	32.39872
862	6.66604	3.2657452	71.0523	70.6498	6.930386	32.39950
863	6.66522	3.2658707	71.2716	70.8678	6.930428	32.40156
864	6.66434	3.2659021	71.4939	71.0888	6.930522	32.40262
865	6.66336	3.2659962	71.7161	71.3097	6.930598	32.40448
866	6.66264	3.2662157	71.9261	71.5186	6.930580	32.40748
867	6.66259	3.2665920	72.1453	71.7364	6.930405	32.41156
868	6.66357	3.2673068	72.3645	71.9543	6.929937	32.41839
869	6.66548	3.2678963	72.5715	72.1601	6.929420	32.42297
870	6.66712	3.2679966	72.7998	72.3871	6.929177	32.42240
871	6.66718	3.2680281	73.0159	72.6020	6.929160	32.42260
872	6.66568	3.2682790	73.2321	72.8169	6.929220	32.42667
873	6.66367	3.2690943	73.4422	73.0257	6.929061	32.43744
874	6.66120	3.2695272	73.6614	73.2436	6.929149	32.44444
875	6.65939	3.2697468	73.8683	73.4494	6.929261	32.44846
876	6.65831	3.2700291	74.0845	73.6643	6.929255	32.45249
877	6.65702	3.2702173	74.2916	73.8702	6.929321	32.45569
878	6.65532	3.2703115	74.5047	74.0820	6.929483	32.45823
879	6.65342	3.2704370	74.7239	74.3000	6.929654	32.46131
880	6.65110	3.2705626	74.9308	74.5057	6.929875	32.46480
881	6.64919	3.2707508	75.1380	74.7116	6.930015	32.46858
882	6.64744	3.2707823	75.3632	74.9355	6.930214	32.47047
883	6.64579	3.2708388	75.5764	75.1474	6.930389	32.47256
884	6.64368	3.2702493	75.7924	75.3622	6.930940	32.46797
885	6.63827	3.2706258	76.0117	75.5802	6.931407	32.47714
886	6.63302	3.2711591	76.2248	75.7920	6.931778	32.48789
887	6.63106	3.2748799	76.4470	76.0130	6.930169	32.53061
888	6.64049	3.2775161	76.6662	76.2309	6.927734	32.55058
889	6.65728	3.2804670	76.8793	76.4427	6.924261	32.56699
890	6.67620	3.2818172	77.0985	76.6606	6.921332	32.56376
891	6.69290	3.2822253	77.3178	76.8786	6.919135	32.55227
892	6.70399	3.2833874	77.5217	77.0814	6.917238	32.55441
893	6.71256	3.2839841	77.7349	77.2933	6.915923	32.55274
894	6.71735	3.2820933	77.9511	77.5082	6.916288	32.52730
895	6.71173	3.2807494	78.1642	77.7200	6.917630	32.51777
896	6.70012	3.2806868	78.3865	77.9410	6.919055	32.52799
897	6.69038	3.2810638	78.5934	78.1467	6.920040	32.54129
898	6.68414	3.2815664	78.8004	78.3526	6.920542	32.55264
899	6.68078	3.2818177	79.0167	78.5675	6.920823	32.55849
900	6.67975	3.2819748	79.2328	78.7824	6.920874	32.56109
901	6.67955	3.2819749	79.4428	78.9912	6.920903	32.56119
902	6.67857	3.2818807	79.6743	79.2213	6.921072	32.56097
903	6.67682	3.2812339	79.9240	79.4695	6.921607	32.55541
904	6.67161	3.2793690	80.1614	79.7055	6.923160	32.53972
905	6.66053	3.2792750	80.3685	79.9114	6.924539	32.54912
906	6.65094	3.2800915	80.5754	80.1171	6.925287	32.56712
907	6.64760	3.2805939	80.8069	80.3472	6.925444	32.57572
908	6.64651	3.2800288	81.0199	80.5590	6.925858	32.57043
909	6.64332	3.2800603	81.2362	80.7740	6.926230	32.57371
910	6.63997	3.2804058	81.4584	80.9949	6.926465	32.58059
911	6.63802	3.2810025	81.6807	81.2159	6.926408	32.58892
912	6.63802	3.2816306	81.8967	81.4307	6.926100	32.59573
913	6.63899	3.2812539	82.1191	81.6517	6.926175	32.59055
914	6.63652	3.2805192	82.3323	81.8637	6.926841	32.58471
915	6.63148	3.2800923	82.5515	82.0815	6.927662	32.58471
916	6.62617	3.2801238	82.7584	82.2873	6.928287	32.59000
917	6.62118	3.2811915	82.9746	82.5022	6.928360	32.60642
918	6.61881	3.2815370	83.1878	82.7141	6.928477	32.61238
919	6.61819	3.2818512	83.4040	82.9291	6.928399	32.61632
920	6.61860	3.2824479	83.6262	83.1499	6.928058	32.62240
921	6.62071	3.2829819	83.8334	83.3559	6.927544	32.62617
922	6.62458	3.2866575	84.0494	83.5707	6.925260	32.66289
923	6.63786	3.2898066	84.2565	83.7765	6.922111	32.68480
924	6.65687	3.2905609	84.4635	83.9823	6.919469	32.67487
925	6.67140	3.2908437	84.6889	84.2063	6.917596	32.66402
926	6.68053	3.2908751	84.9080	84.4242	6.916495	32.65556
927	6.68553	3.2909066	85.1244	84.6393	6.915887	32.65103
928	6.68826	3.2916926	85.3404	84.8540	6.915176	32.65697
929	6.69259	3.2929881	85.5567	85.0690	6.914022	32.66699
930	6.69894	3.2935541	85.7789	85.2899	6.912990	32.66707
931	6.70446	3.2940007	85.9982	85.5079	6.912115	32.66661
932	6.70879	3.2959508	86.2175	85.7260	6.910639	32.68382
933	6.71586	3.2965233	86.4305	85.9377	6.909517	32.68327
934	6.72195	3.2968379	86.6467	86.1527	6.908640	32.68082
935	6.72458	3.2968694	86.8598	86.3645	6.908316	32.67856
936	6.72251	3.2965234	87.0791	86.5824	6.908737	32.67662
937	6.71637	3.2966809	87.2953	86.7973	6.909396	32.68410
938	6.71085	3.2973291	87.5084	87.0092	6.909739	32.69639
939	6.70884	3.2990157	87.7215	87.2211	6.909150	32.71675
940	6.71214	3.3012943	87.9347	87.4330	6.907635	32.73856
941	6.72019	3.3023960	88.1508	87.6479	6.906136	32.74288
942	6.72850	3.3033467	88.3578	87.8536	6.904682	32.74530
943	6.73557	3.3035356	88.5832	88.0776	6.903752	32.74052
944	6.74006	3.3035356	88.7965	88.2897	6.903222	32.73613
945	6.74192	3.3034790	89.0124	88.5043	6.903033	32.73363
946	6.74203	3.3035042	89.2257	88.7163	6.903013	32.73370
947	6.74115	3.3034728	89.4419	88.9312	6.903138	32.73409
948	6.74032	3.3035044	89.6580	89.1461	6.903225	32.73513
949	6.73929	3.3035989	89.8804	89.3672	6.903306	32.73704
950	6.73841	3.3037879	90.1208	89.6061	6.903323	32.73984
951	6.73764	3.3038447	90.3797	89.8635	6.903392	32.74108
952	6.73723	3.3041407	90.6172	90.0996	6.903300	32.74462
953	6.73537	3.3043612	90.8181	90.2993	6.903417	32.74872
954	6.73217	3.3047392	91.0252	90.5052	6.903616	32.75583
955	6.72799	3.3049597	91.2626	90.7412	6.904010	32.76214
956	6.72179	3.3036626	91.4728	90.9501	6.905392	32.75369
957	6.70740	3.3023028	91.6828	91.1589	6.907782	32.75239
958	6.69012	3.3009873	91.9021	91.3769	6.910496	32.75432
959	6.67393	3.2989860	92.1213	91.5948	6.913422	32.74767
960	6.65378	3.2922360	92.3284	91.8006	6.919177	32.69250
961	6.61510	3.2902495	92.5506	92.0215	6.924794	32.70744
962	6.57770	3.2910988	92.7698	92.2394	6.928853	32.75248
963	6.55585	3.2912877	92.9862	92.4545	6.931381	32.77540
964	6.54454	3.2909735	93.1961	92.6632	6.932897	32.78267
965	6.53709	3.2904392	93.4246	92.8903	6.934061	32.78380
966	6.52923	3.2905022	93.6347	93.0992	6.934976	32.79194
967	6.52343	3.2905967	93.8570	93.3201	6.935630	32.79844
968	6.51983	3.2907854	94.0792	93.5410	6.935971	32.80387
969	6.51865	3.2911942	94.3015	93.7620	6.935914	32.80942
970	6.51947	3.2919865	94.5239	93.9831	6.935424	32.81728
971	6.52214	3.2924897	94.7340	94.1919	6.934858	32.82018
972	6.52445	3.2925526	94.9592	94.4158	6.934554	32.81854
973	6.52543	3.2930118	95.1693	94.6246	6.934212	32.82258
974	6.52620	3.2940307	95.3855	94.8396	6.933616	32.83300
975	6.52841	3.2955153	95.6047	95.0575	6.932615	32.84718
976	6.53313	3.2970630	95.8209	95.2723	6.931282	32.85964
977	6.53981	3.2985796	96.0402	95.4904	6.929731	32.86987
978	6.54773	3.2995865	96.2594	95.7082	6.928287	32.87329
979	6.55528	3.2997187	96.4757	95.9232	6.927322	32.86738
980	6.55950	3.2993096	96.6888	96.1351	6.927027	32.85871
981	6.55929	3.2987055	96.9050	96.3500	6.927357	32.85213
982	6.55533	3.2979127	97.1273	96.5710	6.928230	32.84706
983	6.54922	3.2979443	97.3404	96.7828	6.928951	32.85319
984	6.54500	3.2979129	97.5596	97.0007	6.929475	32.85678
985	6.54228	3.2976613	97.7820	97.2218	6.929932	32.85651
986	6.53920	3.2974412	97.9921	97.4307	6.930415	32.85694
987	6.53575	3.2975734	98.2052	97.6425	6.930765	32.86161
988	6.53303	3.2975987	98.4185	97.8545	6.931083	32.86441
989	6.53108	3.2977876	98.6467	98.0813	6.931228	32.86826
990	6.53072	3.2983918	98.8661	98.2994	6.930974	32.87518
991	6.53200	3.2985491	99.0884	98.5204	6.930747	32.87557
992	6.53308	3.2988324	99.3046	98.7353	6.930481	32.87756
993	6.53478	3.2989898	99.5115	98.9410	6.930204	32.87757
994	6.53611	3.2990402	99.7186	99.1468	6.930024	32.87675
995	6.53678	3.2991158	99.9348	99.3618	6.929911	32.87683
996	6.53714	3.2992417	100.1511	99.5767	6.929810	32.87778
997	6.53745	3.2991474	100.3885	99.8128	6.929825	32.87632
998	6.53652	3.2991789	100.6383	100.0610	6.929925	32.87744
999	6.53550	3.2991161	100.8636	100.2849	6.930084	32.87762
1000	6.53457	3.2990217	101.0706	100.4907	6.930247	32.87737
1001	6.53375	3.2990407	101.2867	100.7056	6.930340	32.87827
1002	6.53283	3.2988960	101.5122	100.9297	6.930528	32.87745
1003	6.53164	3.2987073	101.7284	101.1446	6.930768	32.87639
1004	6.52990	3.2986759	101.9445	101.3595	6.930998	32.87762
1005	6.52872	3.2989278	102.1760	101.5895	6.931018	32.88143
1006	6.52882	3.2992425	102.3890	101.8013	6.930854	32.88471
1007	6.52969	3.2991482	102.6024	102.0133	6.930801	32.88272
1008	6.53000	3.2992552	102.8277	102.2373	6.930716	32.88350
1009	6.52959	3.2990854	103.0347	102.4431	6.930854	32.88192
1010	6.52866	3.2991169	103.2540	102.6611	6.930954	32.88305
1011	6.52718	3.2991170	103.4732	102.8789	6.931137	32.88438
1012	6.52584	3.2990541	103.6863	103.0908	6.931332	32.88487
1013	6.52425	3.2991486	103.9055	103.3087	6.931481	32.88734
1014	6.52301	3.2992431	104.1156	103.5175	6.931586	32.88947
1015	6.52271	3.2993754	104.3441	103.7446	6.931561	32.89112
1016	6.52250	3.2994321	104.5604	103.9596	6.931562	32.89184
1017	6.52271	3.2994951	104.7765	104.1745	6.931511	32.89223
1018	6.52286	3.2994951	104.9959	104.3925	6.931497	32.89198
1019	6.52276	3.2995896	105.2026	104.5980	6.931467	32.89302
1020	6.52296	3.2995897	105.4221	104.8162	6.931447	32.89272
1021	6.52286	3.2995583	105.6413	105.0341	6.931480	32.89236
1022	6.52266	3.2995269	105.8636	105.2550	6.931525	32.89211
1023	6.52204	3.2995584	106.0859	105.4760	6.931588	32.89294
1024	6.52194	3.2995585	106.3083	105.6971	6.931605	32.89293
1025	6.52188	3.2996215	106.5153	105.9028	6.931584	32.89358
1026	6.52142	3.2996531	106.7346	106.1208	6.931629	32.89427
1027	6.51942	3.2993070	106.9507	106.3356	6.932046	32.89226
1028	6.51475	3.2989924	107.1670	106.5506	6.932767	32.89318
1029	6.50617	3.2983821	107.3863	106.7686	6.934103	32.89458
1030	6.49514	3.2982376	107.6024	106.9834	6.935502	32.90350
1031	6.48672	3.2981748	107.8218	107.2015	6.936546	32.91081
1032	6.48128	3.2983008	108.0287	107.4071	6.937139	32.91734
1033	6.47774	3.2986470	108.2420	107.6191	6.937395	32.92448
1034	6.47635	3.2990876	108.4459	107.8219	6.937345	32.93060
1035	6.47676	3.2991821	108.6652	108.0398	6.937253	32.93114
1036	6.47764	3.2995283	108.8725	108.2459	6.936980	32.93403
1037	6.47912	3.2997550	109.0885	108.4605	6.936693	32.93500
1038	6.48082	3.2999753	109.2986	108.6694	6.936385	32.93571
1039	6.48246	3.3002586	109.5088	108.8783	6.936051	32.93716
1040	6.48415	3.3007622	109.7311	109.0993	6.935601	32.94099
1041	6.48559	3.3009196	109.9443	109.3112	6.935355	32.94125
1042	6.48651	3.3009071	110.1665	109.5321	6.935255	32.94011
1043	6.48687	3.3017130	110.3766	109.7409	6.934814	32.94858
1044	6.48698	3.3019334	110.6052	109.9681	6.934696	32.95081
1045	6.48739	3.3021538	110.8395	110.2010	6.934542	32.95274
1046	6.48754	3.3025002	111.0801	110.4402	6.934356	32.95631
1047	6.48795	3.3029158	111.3085	110.6672	6.934104	32.96040
1048	6.48970	3.3035455	111.5248	110.8822	6.933585	32.96559
1049	6.49206	3.3033692	111.7319	111.0880	6.933395	32.96126
1050	6.49216	3.3031993	111.9571	111.3118	6.933473	32.95917
1051	6.49062	3.3021857	112.1733	111.5268	6.934168	32.94933
1052	6.48523	3.3019969	112.3896	111.7417	6.934913	32.95233
1053	6.47933	3.3019026	112.5997	111.9506	6.935671	32.95688
1054	6.47430	3.3019657	112.8068	112.1564	6.936246	32.96233
1055	6.46969	3.3023436	113.0383	112.3866	6.936614	32.97086
1056	6.46712	3.3037604	113.2513	112.5982	6.936217	32.98892
1057	6.46851	3.3051648	113.4646	112.8102	6.935353	33.00304
1058	6.47338	3.3067458	113.6778	113.0222	6.933983	33.01573
1059	6.48025	3.3073190	113.8818	113.2250	6.932879	33.01534
1060	6.48621	3.3073505	114.0980	113.4398	6.932156	33.00983
1061	6.48867	3.3073820	114.3111	113.6516	6.931850	33.00769
1062	6.48913	3.3074010	114.5457	113.8848	6.931791	33.00734
1063	6.48851	3.3074137	114.7527	114.0906	6.931863	33.00798
1064	6.48703	3.3073508	114.9751	114.3116	6.932077	33.00861
1065	6.48482	3.3072816	115.1760	114.5113	6.932380	33.00988
1066	6.48236	3.3072502	115.3953	114.7293	6.932695	33.01181
1067	6.48046	3.3072817	115.6084	114.9411	6.932911	33.01389
1068	6.47938	3.3074015	115.8338	115.1652	6.932984	33.01615
1069	6.47892	3.3075402	116.0499	115.3800	6.932975	33.01802
1070	6.47907	3.3077608	116.2633	115.5920	6.932851	33.02021
1071	6.47918	3.3078238	116.4825	115.8099	6.932812	33.02071
1072	6.47692	3.3060790	116.6835	116.0097	6.933959	33.00347
1073	6.46609	3.3055753	116.9058	116.2306	6.935511	33.00825
1074	6.45348	3.3060479	117.1190	116.4426	6.936789	33.02558
1075	6.44563	3.3063063	117.3412	116.6634	6.937603	33.03592
1076	6.44174	3.3064324	117.5575	116.8784	6.938011	33.04098
1077	6.43994	3.3064640	117.7738	117.0934	6.938215	33.04297
1078	6.43887	3.3064325	117.9809	117.2992	6.938364	33.04356
1079	6.43789	3.3063066	118.1940	117.5110	6.938548	33.04300
1080	6.43682	3.3063823	118.4072	117.7229	6.938644	33.04478
1081	6.43631	3.3064328	118.6205	117.9349	6.938685	33.04573
1082	6.43579	3.3063698	118.8336	118.1467	6.938782	33.04543
1083	6.43543	3.3064959	119.0376	118.3495	6.938766	33.04707
1084	6.43502	3.3064960	119.2507	118.5613	6.938820	33.04737
1085	6.43477	3.3065275	119.4669	118.7762	6.938840	33.04786
1086	6.43446	3.3064709	119.6740	118.9821	6.938909	33.04743
1087	6.43369	3.3064332	119.8844	119.1912	6.939025	33.04765
1088	6.43297	3.3063703	120.1065	119.4119	6.939147	33.04754
1089	6.43195	3.3063704	120.3168	119.6209	6.939275	33.04843
1090	6.43103	3.3063075	120.5359	119.8387	6.939421	33.04852
1091	6.43000	3.3062760	120.7522	120.0537	6.939565	33.04906
1092	6.42882	3.3062320	120.9716	120.2717	6.939733	33.04961
1093	6.42785	3.3061439	121.2212	120.5199	6.939899	33.04945
1094	6.42636	3.3060181	121.4678	120.7650	6.940146	33.04938
1095	6.42447	3.3059237	121.6811	120.9770	6.940425	33.05006
1096	6.42252	3.3057978	121.8941	121.1887	6.940726	33.05045
1097	6.42037	3.3058609	122.1103	121.4036	6.940956	33.05313
1098	6.41899	3.3059554	122.3207	121.6127	6.941079	33.05541
1099	6.41806	3.3060815	122.5276	121.8183	6.941131	33.05760
1100	6.41724	3.3062453	122.7529	122.0423	6.941152	33.06011
1101	6.41612	3.3062139	122.9661	122.2542	6.941307	33.06075
1102	6.41335	3.3052944	123.1824	122.4692	6.942105	33.05312
1103	6.40475	3.3042177	123.3987	122.6841	6.943682	33.04941
1104	6.39287	3.3043123	123.6119	122.8960	6.945063	33.06187
1105	6.38462	3.3037961	123.8280	123.1108	6.946316	33.06402
1106	6.37802	3.3037081	124.0381	123.3197	6.947157	33.06934
1107	6.37290	3.3032674	124.2544	123.5347	6.947997	33.06931
1108	6.36753	3.3028897	124.4647	123.7436	6.948836	33.07022
1109	6.36088	3.3014355	124.6869	123.9644	6.950372	33.06041
1110	6.35060	3.3015302	124.9093	124.1855	6.951563	33.07133
1111	6.34134	3.3001014	125.1253	124.4002	6.953400	33.06433
1112	6.33004	3.2995666	125.3386	124.6122	6.955032	33.06924
1113	6.31879	3.2984339	125.5517	124.8240	6.956960	33.06746
1114	6.30668	3.2982768	125.7711	125.0421	6.958500	33.07736
1115	6.29815	3.2983084	125.9843	125.2539	6.959515	33.08590
1116	6.29304	3.2983400	126.2004	125.4688	6.960119	33.09111
1117	6.29023	3.2984345	126.4228	125.6897	6.960414	33.09478
1118	6.28906	3.2985101	126.6421	125.9078	6.960522	33.09666
1119	6.28880	3.2986234	126.8583	126.1226	6.960500	33.09806
1120	6.28885	3.2986864	127.0684	126.3314	6.960467	33.09861
1121	6.28911	3.2987180	127.2847	126.5464	6.960425	33.09861
1122	6.28967	3.2987495	127.4978	126.7582	6.960346	33.09831
1123	6.28982	3.2988754	127.7231	126.9821	6.960269	33.09945
1124	6.29059	3.2991902	127.9395	127.1972	6.960023	33.10210
1125	6.29182	3.2995364	128.1587	127.4151	6.959705	33.10466
1126	6.29365	3.2997316	128.3689	127.6240	6.959390	33.10494
1127	6.29498	3.3000463	128.5911	127.8448	6.959076	33.10704
1128	6.29697	3.3012487	128.7922	128.0447	6.958233	33.11839
1129	6.30198	3.3021615	129.0083	128.2595	6.957175	33.12357
1130	6.30811	3.3025078	129.2216	128.4715	6.956268	33.12136
1131	6.31312	3.3030178	129.4378	128.6863	6.955414	33.12206
1132	6.31675	3.3039498	129.6479	128.8952	6.954512	33.12879
1133	6.32033	3.3045670	129.8521	129.0981	6.953776	33.13208
1134	6.32360	3.3047874	130.0683	129.3130	6.953277	33.13124
1135	6.32559	3.3047245	130.2874	129.5308	6.953074	33.12850
1136	6.32605	3.3045356	130.5037	129.7458	6.953119	33.12585
1137	6.32528	3.3043783	130.6988	129.9397	6.953295	33.12475
1138	6.32329	3.3041327	130.9240	130.1635	6.953663	33.12384
1139	6.31992	3.3033017	131.1616	130.3996	6.954492	33.11777
1140	6.31394	3.3032073	131.4113	130.6478	6.955264	33.12241
1141	6.30903	3.3032704	131.6579	130.8929	6.955827	33.12776
1142	6.30525	3.3031446	131.8711	131.1048	6.956349	33.12993
1143	6.30244	3.3032077	132.0781	131.3105	6.956660	33.13327
1144	6.30065	3.3031763	132.2793	131.5104	6.956895	33.13456
1145	6.29932	3.3028993	132.5017	131.7315	6.957199	33.13266
1146	6.29743	3.3025405	132.7116	131.9401	6.957612	33.13040
1147	6.29462	3.3024462	132.9158	132.1431	6.958002	33.13199
1148	6.29238	3.3025407	133.1320	132.3579	6.958229	33.13512
1149	6.29110	3.3025408	133.3454	132.5700	6.958388	33.13626
1150	6.29064	3.3025094	133.5553	132.7787	6.958463	33.13625
1151	6.29018	3.3023269	133.7745	132.9965	6.958616	33.13456
1152	6.28870	3.3016281	133.9878	133.2085	6.959152	33.12812
1153	6.28507	3.3010239	134.1979	133.4173	6.959898	33.12482
1154	6.27992	3.3006463	134.4049	133.6230	6.960714	33.12553
1155	6.27435	3.2999226	134.6273	133.8441	6.961754	33.12278
1156	6.26822	3.2996017	134.8406	134.0561	6.962658	33.12507
1157	6.26261	3.2993186	135.0536	134.2677	6.963482	33.12727
1158	6.25781	3.2987838	135.2700	134.4828	6.964335	33.12588
1159	6.25250	3.2986895	135.4861	134.6975	6.965027	33.12989
1160	6.24796	3.2991302	135.6872	134.8974	6.965355	33.13912
1161	6.24557	3.2991302	135.9065	135.1154	6.965649	33.14135
1162	6.24429	3.2992247	136.1349	135.3424	6.965759	33.14353
1163	6.24286	3.2997346	136.3390	135.5452	6.965677	33.15051
1164	6.24194	3.3006789	136.5642	135.7691	6.965315	33.16181
1165	6.24266	3.3018813	136.7746	135.9781	6.964624	33.17442
1166	6.24521	3.3020702	136.9937	136.1959	6.964226	33.17393
1167	6.24771	3.3022277	137.2099	136.4108	6.963850	33.17314
1168	6.24898	3.3021648	137.4262	136.6257	6.963734	33.17109
1169	6.24934	3.3019760	137.6424	136.8406	6.963791	33.16853
1170	6.24827	3.3020390	137.8556	137.0525	6.963893	33.17017
1171	6.24771	3.3023602	138.0718	137.2673	6.963802	33.17419
1172	6.24812	3.3024484	138.2911	137.4853	6.963714	33.17467
1173	6.24827	3.3026436	138.5012	137.6942	6.963601	33.17660
1174	6.24704	3.3026122	138.7114	137.9030	6.963769	33.17734
1175	6.24536	3.3027067	138.9306	138.1209	6.963928	33.17992
1176	6.24352	3.3030216	139.1407	138.3297	6.963995	33.18512
1177	6.24215	3.3029902	139.3539	138.5416	6.964181	33.18601
1178	6.24026	3.3029651	139.5582	138.7446	6.964425	33.18747
1179	6.23817	3.3030219	139.7772	138.9623	6.964653	33.19004
1180	6.23628	3.3030850	139.9875	139.1712	6.964853	33.19248
1181	6.23455	3.3030536	140.2099	139.3923	6.965083	33.19371
1182	6.23271	3.3030222	140.4167	139.5979	6.965324	33.19505
1183	6.23133	3.3030222	140.6301	139.8099	6.965494	33.19629
1184	6.23006	3.3029908	140.8373	140.0158	6.965668	33.19708
1185	6.22924	3.3029594	141.0443	140.2215	6.965787	33.19743
1186	6.22837	3.3029280	141.2666	140.4424	6.965912	33.19782
1187	6.22771	3.3027707	141.5256	140.6999	6.966078	33.19658
1188	6.22659	3.3026764	141.7692	140.9420	6.966266	33.19650
1189	6.22496	3.3023239	141.9884	141.1598	6.966646	33.19406
1190	6.22256	3.3023240	142.1894	141.3595	6.966939	33.19630
1191	6.22067	3.3023303	142.4056	141.5745	6.967168	33.19811
1192	6.21960	3.3023556	142.6218	141.7893	6.967289	33.19933
1193	6.21904	3.3023872	142.8383	142.0045	6.967345	33.20012
1194	6.21869	3.3024187	143.0696	142.2343	6.967377	33.20071
1195	6.21879	3.3025825	143.2798	142.4432	6.967287	33.20233
1196	6.21914	3.3026455	143.4928	142.6550	6.967216	33.20258
1197	6.21930	3.3026330	143.7000	142.8608	6.967209	33.20219
1198	6.21812	3.3026456	143.9253	143.0847	6.967349	33.20337
1199	6.21680	3.3025450	144.1295	143.2876	6.967564	33.20344
1200	6.21527	3.3027088	144.3457	143.5025	6.967670	33.20665
1201	6.21476	3.3029292	144.5680	143.7235	6.967624	33.20950
1202	6.21491	3.3030237	144.7751	143.9293	6.967563	33.21030
1203	6.21471	3.3031183	144.9913	144.1441	6.967544	33.21145
1204	6.21405	3.3031750	145.2046	144.3561	6.967600	33.21263
1205	6.21216	3.3030555	145.4238	144.5740	6.967892	33.21303
1206	6.20915	3.3029611	145.6340	144.7829	6.968307	33.21481
1207	6.20620	3.3028353	145.8503	144.9978	6.968732	33.21619
1208	6.20355	3.3028039	146.0665	145.2127	6.969072	33.21832
1209	6.20151	3.3028040	146.2767	145.4215	6.969322	33.22021
1210	6.20008	3.3029363	146.4960	145.6395	6.969432	33.22297
1211	6.19926	3.3030245	146.7089	145.8511	6.969490	33.22465
1212	6.19906	3.3031820	146.9223	146.0632	6.969439	33.22650
1213	6.19916	3.3033395	147.1325	146.2721	6.969352	33.22805
1214	6.19977	3.3034340	147.3549	146.4931	6.969235	33.22840
1215	6.20049	3.3037804	147.5740	146.7108	6.968978	33.23146
1216	6.20176	3.3043535	147.7871	146.9227	6.968538	33.23651
1217	6.20355	3.3043158	148.0005	147.1346	6.968347	33.23424
1218	6.20319	3.3037491	148.2106	147.3434	6.968683	33.22816
1219	6.19957	3.3029936	148.4268	147.5583	6.969507	33.22316
1220	6.19233	3.3024837	148.6371	147.7673	6.970642	33.22444
1221	6.18408	3.3022005	148.8504	147.9793	6.971785	33.22924
1222	6.17766	3.3021692	149.0633	148.1909	6.972580	33.23506
1223	6.17323	3.3020371	149.2704	148.3967	6.973186	33.23781
1224	6.16961	3.3021065	149.4684	148.5935	6.973591	33.24203
1225	6.16671	3.3020751	149.6967	148.8204	6.973962	33.24440
1226	6.16406	3.3020752	149.9100	149.0324	6.974286	33.24689
1227	6.16203	3.3020123	150.1235	149.2445	6.974568	33.24807
1228	6.16009	3.3020124	150.3272	149.4470	6.974806	33.24987
1229	6.15856	3.3020125	150.5466	149.6650	6.974995	33.25125
1230	6.15749	3.3019748	150.7567	149.8738	6.975148	33.25178
1231	6.15637	3.3018552	150.9639	150.0796	6.975348	33.25144
1232	6.15485	3.3018239	151.1831	150.2975	6.975553	33.25247
1233	6.15357	3.3018239	151.4145	150.5275	6.975712	33.25360
1234	6.15271	3.3017925	151.6520	150.7635	6.975837	33.25398
1235	6.15189	3.3017612	151.8897	150.9997	6.975957	33.25431
1236	6.15108	3.3016731	152.0968	151.2055	6.976105	33.25402
1237	6.14991	3.3016039	152.3130	151.4203	6.976286	33.25429
1238	6.14823	3.3015096	152.5232	151.6292	6.976541	33.25478
1239	6.14629	3.3015097	152.7394	151.8441	6.976779	33.25657
1240	6.14441	3.3014783	152.9648	152.0682	6.977028	33.25795
1241	6.14207	3.3014469	153.1750	152.2770	6.977331	33.25978
1242	6.13978	3.3014470	153.3880	152.4887	6.977612	33.26192
1243	6.13825	3.3014660	153.6135	152.7127	6.977791	33.26352
1244	6.13718	3.3014471	153.8206	152.9186	6.977934	33.26425
1245	6.13591	3.3014787	154.0278	153.1245	6.978076	33.26575
1246	6.13530	3.3014788	154.2529	153.3482	6.978155	33.26624
1247	6.13515	3.3014788	154.4632	153.5572	6.978178	33.26628
1248	6.13444	3.3014474	154.6794	153.7720	6.978285	33.26652
1249	6.13327	3.3013531	154.8987	153.9900	6.978479	33.26651
1250	6.13057	3.3012588	155.1028	154.1928	6.978857	33.26799
1251	6.12665	3.3012904	155.3282	154.4168	6.979319	33.27207
1252	6.12294	3.3010953	155.5384	154.6257	6.979871	33.27343
1253	6.11719	3.3010954	155.7486	154.8345	6.980570	33.27896
1254	6.11231	3.3010641	155.9616	155.0462	6.981180	33.28328
1255	6.10849	3.3010957	156.1749	155.2582	6.981629	33.28727
1256	6.10570	3.3010454	156.3910	155.4730	6.981998	33.28934
1257	6.10366	3.3010329	156.6104	155.6909	6.982254	33.29109
1258	6.10219	3.3010330	156.8266	155.9058	6.982437	33.29243
1259	6.10092	3.3010331	157.0369	156.1148	6.982595	33.29357
1260	6.09934	3.3009387	157.2469	156.3235	6.982839	33.29396
1261	6.09746	3.3009388	157.4693	156.5445	6.983071	33.29570
1262	6.09481	3.3008130	157.6884	156.7622	6.983459	33.29677
1263	6.08993	3.3007439	157.8987	156.9712	6.984089	33.30068
1264	6.08373	3.3007503	158.1027	157.1739	6.984839	33.30674
1265	6.07799	3.3007819	158.3191	157.3890	6.985522	33.31262
1266	6.07352	3.3007820	158.5352	157.6037	6.986067	33.31690
1267	6.06879	3.3007822	158.7483	157.8155	6.986642	33.32144
1268	6.06458	3.3008137	158.9646	158.0305	6.987141	33.32582
1269	6.06102	3.3007509	159.1747	158.2393	6.987607	33.32851
1270	6.05731	3.3006881	159.3817	158.4450	6.988092	33.33134
1271	6.05411	3.3006882	159.5857	158.6477	6.988484	33.33439
1272	6.05183	3.3006882	159.7810	158.8417	6.988764	33.33654
1273	6.05036	3.3006569	160.0002	159.0595	6.988964	33.33753
1274	6.04934	3.3006569	160.2044	159.2624	6.989091	33.33842
1275	6.04858	3.3006570	160.4206	159.4773	6.989188	33.33907
1276	6.04812	3.3006571	160.6155	159.6710	6.989247	33.33942
1277	6.04736	3.3006257	160.8317	159.8858	6.989360	33.33971
1278	6.04675	3.3006572	161.0417	160.0946	6.989423	33.34056
1279	6.04558	3.3007517	161.2643	160.3158	6.989521	33.34266
1280	6.04472	3.3008462	161.4742	160.5244	6.989581	33.34446
1281	6.04360	3.3009722	161.7210	160.7695	6.989657	33.34685
1282	6.04254	3.3010353	161.9675	161.0146	6.989760	33.34848
1283	6.04081	3.3010165	162.1897	161.2354	6.989983	33.34986
1284	6.03908	3.3009725	162.4001	161.4444	6.990219	33.35096
1285	6.03776	3.3010355	162.6132	161.6562	6.990351	33.35286
1286	6.03690	3.3010041	162.8235	161.8651	6.990476	33.35325
1287	6.03553	3.3009727	163.0307	162.0711	6.990663	33.35414
1288	6.03416	3.3009413	163.2528	162.2918	6.990850	33.35503
1289	6.03258	3.3008785	163.4537	162.4914	6.991077	33.35577
1290	6.03086	3.3008722	163.6762	162.7125	6.991294	33.35729
1291	6.02928	3.3008157	163.8864	162.9214	6.991518	33.35810
1292	6.02756	3.3008158	164.0995	163.1332	6.991731	33.35969
1293	6.02619	3.3007844	164.3130	163.3453	6.991918	33.36058
1294	6.02538	3.3007530	164.5259	163.5569	6.992037	33.36093
1295	6.02431	3.3007531	164.7422	163.7718	6.992171	33.36187
1296	6.02380	3.3007531	164.9432	163.9716	6.992237	33.36227
1297	6.02330	3.3007469	165.1626	164.1896	6.992306	33.36259
1298	6.02304	3.3007533	165.3847	164.4103	6.992339	33.36280
1299	6.02279	3.3007533	165.5950	164.6192	6.992374	33.36295
1300	6.02253	3.3007534	165.8082	164.8312	6.992409	33.36309
1301	6.02233	3.3007535	166.0152	165.0368	6.992439	33.36319
1302	6.02213	3.3007535	166.2284	165.2487	6.992468	33.36329
1303	6.02187	3.3007473	166.4537	165.4725	6.992507	33.36336
1304	6.02198	3.3007852	166.6672	165.6847	6.992480	33.36357
1305	6.02172	3.3007852	166.8801	165.8963	6.992516	33.36372
1306	6.02167	3.3007853	167.0843	166.0992	6.992526	33.36367
1307	6.02137	3.3007854	167.2883	166.3019	6.992568	33.36387
1308	6.02061	3.3008169	167.5197	166.5318	6.992649	33.36486
1309	6.01969	3.3008170	167.7452	166.7559	6.992764	33.36565
1310	6.01868	3.3007478	167.9556	166.9650	6.992927	33.36576
1311	6.01731	3.3007227	168.1657	167.1738	6.993111	33.36673
1312	6.01558	3.3006599	168.3726	167.3794	6.993356	33.36762
1313	6.01381	3.3006285	168.5826	167.5881	6.993592	33.36891
1314	6.01188	3.3006286	168.8049	167.8090	6.993830	33.37070
1315	6.01010	3.3005972	169.0276	168.0303	6.994066	33.37198
1316	6.00868	3.3005973	169.2434	168.2447	6.994243	33.37328
1317	6.00762	3.3005722	169.4477	168.4477	6.994390	33.37394
1318	6.00655	3.3005660	169.6670	168.6656	6.994527	33.37481
1319	6.00528	3.3005660	169.8770	168.8742	6.994685	33.37596
1320	6.00467	3.3005661	170.0902	169.0861	6.994763	33.37645
1321	6.00422	3.3005977	170.3036	169.2981	6.994807	33.37715
1322	6.00386	3.3005977	170.5197	169.5129	6.994855	33.37739
1323	6.00361	3.3005978	170.7359	169.7278	6.994891	33.37754
1324	6.00290	3.3005727	170.9402	169.9308	6.994994	33.37785
1325	6.00199	3.3005665	171.1624	170.1516	6.995113	33.37857
1326	6.00087	3.3005351	171.3664	170.3543	6.995269	33.37922
1327	5.99854	3.3005352	171.5704	170.5570	6.995556	33.38142
1328	5.99554	3.3004094	171.7959	170.7810	6.995988	33.38284
1329	5.99174	3.3003780	172.0548	171.0383	6.996470	33.38611
1330	5.98784	3.3003593	172.2860	171.2681	6.996958	33.38963
1331	5.98494	3.3003468	172.4994	171.4801	6.997319	33.39223
1332	5.98342	3.3003469	172.7094	171.6888	6.997508	33.39362
1333	5.98236	3.3003784	172.9135	171.8916	6.997625	33.39493
1334	5.98190	3.3003470	173.1239	172.1006	6.997701	33.39492
1335	5.98145	3.3003471	173.3338	172.3093	6.997761	33.39527
1336	5.98099	3.3003471	173.5592	172.5332	6.997822	33.39560
1337	5.98043	3.3003913	173.7632	172.7359	6.997871	33.39655
1338	5.97962	3.3003158	173.9644	172.9358	6.998013	33.39640
1339	5.97845	3.3002844	174.1716	173.1417	6.998175	33.39709
1340	5.97739	3.3002845	174.3878	173.3565	6.998308	33.39804
1341	5.97663	3.3002846	174.6070	173.5743	6.998405	33.39868
1342	5.97577	3.3002847	174.8171	173.7831	6.998514	33.39943
1343	5.97521	3.3002847	175.0243	173.9890	6.998587	33.39987
1344	5.97460	3.3002407	175.2283	174.1918	6.998688	33.39988
1345	5.97369	3.3002534	175.4446	174.4067	6.998796	33.40081
1346	5.97298	3.3002535	175.6609	174.6216	6.998887	33.40141
1347	5.97222	3.3002221	175.8709	174.8303	6.999000	33.40170
1348	5.97131	3.3002536	176.0811	175.0392	6.999099	33.40285
1349	5.96847	3.3004111	176.2881	175.2448	6.999367	33.40731
1350	5.96376	3.3005056	176.4923	175.4477	6.999894	33.41292
1351	5.95960	3.3005120	176.7024	175.6565	7.000399	33.41699
1352	5.95671	3.3005373	176.9155	175.8682	7.000741	33.42001
1353	5.95514	3.3005374	177.1197	176.0712	7.000936	33.42146
1354	5.95387	3.3005375	177.3297	176.2798	7.001094	33.42261
1355	5.95306	3.3005690	177.5368	176.4856	7.001180	33.42366
1356	5.95235	3.3005376	177.7348	176.6823	7.001287	33.42391
1357	5.95159	3.3005440	177.9389	176.8851	7.001380	33.42463
1358	5.95129	3.3006007	178.1551	177.1000	7.001393	33.42546
1359	5.95119	3.3005693	178.3529	177.2965	7.001426	33.42511
1360	5.95099	3.3005694	178.5571	177.4994	7.001455	33.42521
1361	5.95073	3.3005694	178.7702	177.7112	7.001491	33.42535
1362	5.95058	3.3006010	178.9776	177.9172	7.001497	33.42576
1363	5.95048	3.3006010	179.1937	178.1320	7.001515	33.42575
1364	5.95017	3.3005759	179.3917	178.3287	7.001569	33.42567
1365	5.94982	3.3006641	179.5987	178.5344	7.001571	33.42691
1366	5.94957	3.3006642	179.8057	178.7401	7.001606	33.42706
1367	5.94921	3.3006957	180.0100	178.9431	7.001638	33.42766
1368	5.94840	3.3007588	180.2536	179.1852	7.001709	33.42905
1369	5.94744	3.3008218	180.5306	179.4604	7.001800	33.43057
1370	5.94622	3.3008849	180.8046	179.7326	7.001921	33.43234
1371	5.94445	3.3009038	181.0361	179.9627	7.002131	33.43419
1372	5.94268	3.3009165	181.2250	180.1503	7.002344	33.43599
1373	5.94151	3.3008851	181.4169	180.3411	7.002505	33.43669
1374	5.94050	3.3009481	181.6057	180.5286	7.002600	33.43830
1375	5.93954	3.3009797	181.8189	180.7404	7.002705	33.43950
1376	5.93787	3.3010112	182.0383	180.9585	7.002897	33.44140
1377	5.93680	3.3010554	182.2787	181.1973	7.003008	33.44283
1378	5.93614	3.3010429	182.5133	181.4304	7.003100	33.44322
1379	5.93579	3.3010744	182.7327	181.6485	7.003132	33.44382
1380	5.93559	3.3010745	182.9458	181.8602	7.003161	33.44391
1381	5.93543	3.3011690	183.1408	182.0540	7.003135	33.44503
1382	5.93533	3.3012698	183.3357	182.2476	7.003100	33.44616
1383	5.93528	3.3013328	183.5489	182.4594	7.003078	33.44682
1384	5.93523	3.3014462	183.7650	182.6742	7.003031	33.44803
1385	5.93559	3.3015218	183.9782	182.8860	7.002954	33.44843
1386	5.93584	3.3015533	184.1823	183.0888	7.002912	33.44843
1387	5.93599	3.3016793	184.3894	183.2946	7.002833	33.44959
1388	5.93614	3.3018682	184.6057	183.5095	7.002722	33.45146
1389	5.93640	3.3019313	184.8189	183.7214	7.002664	33.45181
1390	5.93630	3.3020572	185.0443	183.9453	7.002616	33.45322
1391	5.93589	3.3021077	185.2423	184.1420	7.002644	33.45409
1392	5.93548	3.3022148	185.4525	184.3509	7.002643	33.45559
1393	5.93493	3.3023408	185.6501	184.5472	7.002650	33.45746
1394	5.93381	3.3024983	185.8726	184.7683	7.002709	33.46022
1395	5.93219	3.3025298	186.0950	184.9893	7.002894	33.46206
1396	5.93062	3.3025614	186.2958	185.1888	7.003073	33.46387
1397	5.92946	3.3025615	186.5030	185.3947	7.003218	33.46492
1398	5.92860	3.3025993	186.7163	185.6066	7.003308	33.46609
1399	5.92799	3.3026309	186.9354	185.8243	7.003370	33.46693
1400	5.92743	3.3026939	187.1457	186.0332	7.003410	33.46809
1401	5.92698	3.3027255	187.3528	186.2391	7.003454	33.46879
1402	5.92607	3.3026941	187.5600	186.4449	7.003585	33.46924
1403	5.92536	3.3027886	187.7670	186.6506	7.003627	33.47090
1404	5.92419	3.3028327	187.9681	186.8504	7.003750	33.47244
1405	5.92277	3.3028517	188.1720	187.0530	7.003917	33.47396
1406	5.92136	3.3029462	188.3759	187.2556	7.004045	33.47632
1407	5.91923	3.3030093	188.5862	187.4646	7.004275	33.47903
1408	5.91574	3.3031038	188.7811	187.6582	7.004654	33.48345
1409	5.91159	3.3031354	188.9942	187.8699	7.005145	33.48780
1410	5.90774	3.3031607	189.1954	188.0698	7.005603	33.49179
1411	5.90455	3.3031671	189.4025	188.2756	7.005991	33.49491
1412	5.90248	3.3031987	189.6005	188.4724	7.006231	33.49722
1413	5.90126	3.3032302	189.8105	188.6810	7.006367	33.49868
1414	5.90050	3.3032303	190.0239	188.8930	7.006464	33.49932
1415	5.89974	3.3032619	190.2309	189.0987	7.006544	33.50033
1416	5.89898	3.3032934	190.4503	189.3168	7.006625	33.50132
1417	5.89833	3.3033439	190.6634	189.5284	7.006683	33.50244
1418	5.89742	3.3033565	190.8704	189.7341	7.006792	33.50338
1419	5.89615	3.3033881	191.0775	189.9399	7.006934	33.50488
1420	5.89463	3.3034512	191.3029	190.1639	7.007090	33.50698
1421	5.89342	3.3034827	191.5100	190.3697	7.007226	33.50844
1422	5.89220	3.3034828	191.7293	190.5875	7.007378	33.50953
1423	5.89150	3.3034955	191.9425	190.7993	7.007462	33.51027
1424	5.89089	3.3034830	192.1466	191.0021	7.007547	33.51063
1425	5.89043	3.3034830	192.3656	191.2197	7.007607	33.51097
1426	5.88983	3.3035146	192.5882	191.4409	7.007670	33.51182
1427	5.88897	3.3035147	192.8408	191.6919	7.007780	33.51254
1428	5.88836	3.3035148	193.0846	191.9341	7.007859	33.51302
1429	5.88745	3.3035148	193.3219	192.1699	7.007975	33.51381
1430	5.88689	3.3035212	193.5228	192.3695	7.008043	33.51433
1431	5.88639	3.3035150	193.7332	192.5785	7.008113	33.51466
1432	5.88578	3.3035151	193.9464	192.7903	7.008191	33.51515
1433	5.88517	3.3034837	194.1626	193.0052	7.008286	33.51529
1434	5.88457	3.3034837	194.3820	193.2231	7.008365	33.51579
1435	5.88365	3.3034838	194.6039	193.4437	7.008480	33.51658
1436	5.88224	3.3034965	194.8326	193.6709	7.008650	33.51801
1437	5.87996	3.3036099	195.0427	193.8797	7.008873	33.52144
1438	5.87698	3.3036415	195.2619	194.0975	7.009223	33.52464
1439	5.87404	3.3037676	195.4902	194.3242	7.009519	33.52885
1440	5.87182	3.3038999	195.6974	194.5301	7.009726	33.53244
1441	5.87030	3.3038685	195.9197	194.7510	7.009931	33.53348
1442	5.86808	3.3036167	196.1451	194.9750	7.010336	33.53274
1443	5.86413	3.3035161	196.3703	195.1987	7.010872	33.53540
1444	5.85928	3.3034847	196.5806	195.4076	7.011482	33.53976
1445	5.85448	3.3034848	196.7939	195.6196	7.012069	33.54441
1446	5.85114	3.3035164	197.0283	195.8524	7.012463	33.54796
1447	5.84892	3.3034850	197.2416	196.0644	7.012754	33.54970
1448	5.84730	3.3034536	197.4607	196.2821	7.012972	33.55085
1449	5.84634	3.3034663	197.6890	196.5089	7.013087	33.55183
1450	5.84553	3.3034538	197.9086	196.7271	7.013197	33.55238
1451	5.84482	3.3034853	198.1217	196.9388	7.013271	33.55333
1452	5.84417	3.3035484	198.3409	197.1566	7.013323	33.55458
1453	5.84331	3.3036114	198.5631	197.3774	7.013400	33.55604
1454	5.84275	3.3036430	198.7826	197.5954	7.013456	33.55683
1455	5.84215	3.3036494	198.9956	197.8071	7.013531	33.55740
1456	5.84043	3.3036117	199.2272	198.0371	7.013765	33.55857
1457	5.83790	3.3033599	199.4554	198.2639	7.014207	33.55812
1458	5.83361	3.3032970	199.6655	198.4726	7.014766	33.56157
1459	5.82870	3.3038702	199.8787	198.6845	7.015069	33.57279
1460	5.82461	3.3044686	200.1101	198.9144	7.015261	33.58348
1461	5.82249	3.3048780	200.3264	199.1293	7.015312	33.59010
1462	5.82183	3.3061755	200.5488	199.3502	7.014724	33.60528
1463	5.82269	3.3066228	200.7741	199.5741	7.014393	33.60936
1464	5.82325	3.3068119	201.0025	199.8011	7.014233	33.61082
1465	5.82320	3.3069064	201.2310	200.0280	7.014196	33.61183
1466	5.82305	3.3070640	201.4415	200.2372	7.014137	33.61365
1467	5.82259	3.3072531	201.6726	200.4667	7.014100	33.61612
1468	5.82183	3.3073476	201.9011	200.6938	7.014148	33.61782
1469	5.82113	3.3074800	202.1264	200.9177	7.014170	33.61991
1470	5.82022	3.3076061	202.3455	201.1354	7.014220	33.62212
1471	5.81936	3.3076377	202.5741	201.3625	7.014313	33.62322
1472	5.81865	3.3077322	202.7962	201.5831	7.014355	33.62488
1473	5.81784	3.3078583	203.0370	201.8223	7.014394	33.62699
1474	5.81648	3.3079214	203.2898	202.0735	7.014532	33.62893
1475	5.81512	3.3079530	203.5362	202.3183	7.014687	33.63052
1476	5.81396	3.3079846	203.7737	202.5542	7.014817	33.63191
1477	5.81290	3.3080162	204.0082	202.7872	7.014935	33.63320
1478	5.81178	3.3080478	204.2184	202.9961	7.015058	33.63456
1479	5.81047	3.3080794	204.4376	203.2139	7.015206	33.63611
1480	5.80946	3.3080983	204.6753	203.4501	7.015324	33.63722
1481	5.80830	3.3081110	204.8944	203.6678	7.015463	33.63840
1482	5.80694	3.3081426	205.1138	203.8857	7.015618	33.64001
1483	5.80573	3.3081742	205.3451	204.1155	7.015754	33.64145
1484	5.80477	3.3081743	205.5521	204.3212	7.015875	33.64231
1485	5.80376	3.3081429	205.7746	204.5422	7.016019	33.64285
1486	5.80270	3.3081618	205.9877	204.7540	7.016142	33.64401
1487	5.80133	3.3081745	206.2101	204.9749	7.016306	33.64540
1488	5.80022	3.3081746	206.4354	205.1988	7.016446	33.64639
1489	5.79926	3.3082062	206.6545	205.4164	7.016551	33.64759
1490	5.79871	3.3081748	206.8800	205.6404	7.016640	33.64768
1491	5.79825	3.3082063	207.0903	205.8494	7.016684	33.64838
1492	5.79770	3.3082253	207.3126	206.0702	7.016746	33.64904
1493	5.79694	3.3082065	207.5438	206.3000	7.016853	33.64947
1494	5.79583	3.3082066	207.7725	206.5271	7.016993	33.65046
1495	5.79452	3.3081752	207.9857	206.7389	7.017174	33.65130
1496	5.79300	3.3081752	208.2079	206.9597	7.017363	33.65270
1497	5.79149	3.3081753	208.4331	207.1834	7.017552	33.65410
1498	5.79038	3.3081628	208.6403	207.3893	7.017698	33.65496
1499	5.78922	3.3081755	208.8534	207.6010	7.017837	33.65615
1500	5.78831	3.3081756	209.0755	207.8217	7.017952	33.65695
1501	5.78765	3.3081441	209.2981	208.0428	7.018054	33.65713
1502	5.78715	3.3081757	209.5082	208.2516	7.018103	33.65789
1503	5.78674	3.3081758	209.7245	208.4664	7.018157	33.65818
1504	5.78659	3.3081948	209.9405	208.6811	7.018171	33.65844
1505	5.78619	3.3081444	210.1538	208.8930	7.018251	33.65817
1506	5.78538	3.3081760	210.3578	209.0957	7.018337	33.65923
1507	5.78447	3.3081446	210.5679	209.3043	7.018468	33.65967
1508	5.78362	3.3081132	210.7780	209.5131	7.018594	33.66007
1509	5.78251	3.3081132	210.9851	209.7189	7.018733	33.66107
1510	5.78114	3.3080755	211.1954	209.9278	7.018923	33.66189
1511	5.77978	3.3080819	211.4088	210.1398	7.019090	33.66322
1512	5.77852	3.3080505	211.6218	210.3514	7.019265	33.66401
1513	5.77761	3.3080506	211.8289	210.5572	7.019380	33.66481
1514	5.77680	3.3080191	212.0359	210.7629	7.019499	33.66516
1515	5.77615	3.3080192	212.2462	210.9718	7.019583	33.66571
1516	5.77549	3.3080130	212.4499	211.1741	7.019671	33.66619
1517	5.77519	3.3080193	212.6605	211.3834	7.019709	33.66646
1518	5.77468	3.3079879	212.8702	211.5917	7.019792	33.66650
1519	5.77393	3.3079880	213.0957	211.8157	7.019889	33.66715
1520	5.77302	3.3079566	213.3241	212.0426	7.020020	33.66758
1521	5.77231	3.3079567	213.5616	212.2785	7.020112	33.66817
1522	5.77156	3.3079567	213.7991	212.5146	7.020209	33.66880
1523	5.77090	3.3079568	214.0033	212.7174	7.020293	33.66936
1524	5.77040	3.3079569	214.2072	212.9199	7.020359	33.66976
1525	5.76979	3.3079570	214.4111	213.1226	7.020437	33.67026
1526	5.76918	3.3079570	214.6153	213.3254	7.020516	33.67076
1527	5.76873	3.3079256	214.8255	213.5342	7.020592	33.67075
1528	5.76818	3.3079572	215.0417	213.7491	7.020648	33.67156
1529	5.76757	3.3078942	215.2395	213.9456	7.020759	33.67135
1530	5.76707	3.3079258	215.4466	214.1512	7.020808	33.67211
1531	5.76656	3.3079259	215.6507	214.3541	7.020874	33.67251
1532	5.76601	3.3078944	215.8515	214.5535	7.020963	33.67260
1533	5.76545	3.3078945	216.0558	214.7565	7.021035	33.67306
1534	5.76480	3.3078946	216.2691	214.9685	7.021119	33.67360
1535	5.76429	3.3078632	216.4639	215.1619	7.021201	33.67365
1536	5.76364	3.3078947	216.6708	215.3675	7.021269	33.67456
1537	5.76338	3.3078948	216.8751	215.5705	7.021305	33.67471
1538	5.76298	3.3078634	217.0883	215.7823	7.021375	33.67465
1539	5.76283	3.3078949	217.2952	215.9878	7.021382	33.67506
1540	5.76278	3.3078950	217.5055	216.1967	7.021393	33.67500
1541	5.76273	3.3079266	217.7126	216.4025	7.021387	33.67531
1542	5.76258	3.3078951	217.9167	216.6052	7.021426	33.67500
1543	5.76243	3.3078952	218.1205	216.8077	7.021449	33.67505
1544	5.76222	3.3078638	218.3307	217.0166	7.021495	33.67479
1545	5.76197	3.3078323	218.5319	217.2164	7.021547	33.67459
1546	5.76116	3.3077757	218.7391	217.4223	7.021679	33.67465
1547	5.76000	3.3077380	218.9490	217.6308	7.021844	33.67527
1548	5.75879	3.3077066	219.1592	217.8396	7.022013	33.67602
1549	5.75748	3.3077381	219.3693	218.0483	7.022160	33.67758
1550	5.75622	3.3077382	219.5764	218.2541	7.022318	33.67873
1551	5.75536	3.3077698	219.7802	218.4566	7.022411	33.67984
1552	5.75496	3.3077762	219.9934	218.6684	7.022461	33.68021
1553	5.75491	3.3078014	220.2037	218.8773	7.022459	33.68044
1554	5.75471	3.3078015	220.4079	219.0801	7.022488	33.68054
1555	5.75436	3.3077701	220.6057	219.2766	7.022552	33.68044
1556	5.75395	3.3077386	220.8158	219.4854	7.022622	33.68038
1557	5.75325	3.3076757	221.0045	219.6728	7.022745	33.68028
1558	5.75229	3.3076884	221.2178	219.8847	7.022860	33.68127
1559	5.75148	3.3076759	221.4311	220.0966	7.022969	33.68183
1560	5.75067	3.3077074	221.6412	220.3053	7.023056	33.68288
1561	5.75012	3.3076760	221.8391	220.5019	7.023144	33.68298
1562	5.74941	3.3077076	222.0523	220.7137	7.023218	33.68394
1563	5.74906	3.3076762	222.2716	220.9316	7.023283	33.68382
1564	5.74861	3.3076888	222.4724	221.1311	7.023336	33.68432
1565	5.74790	3.3077393	222.6795	221.3369	7.023400	33.68549
1566	5.74730	3.3077079	222.8835	221.5395	7.023495	33.68564
1567	5.74684	3.3077079	223.1121	221.7665	7.023555	33.68598
1568	5.74649	3.3077080	223.3585	222.0114	7.023604	33.68621
1569	5.74619	3.3077396	223.5900	222.2414	7.023629	33.68675
1570	5.74593	3.3077460	223.7910	222.4411	7.023661	33.68697
1571	5.74588	3.3077712	224.0043	222.6529	7.023659	33.68720
1572	5.74578	3.3077398	224.1991	222.8465	7.023692	33.68685
1573	5.74513	3.3077399	224.4032	223.0492	7.023777	33.68740
1574	5.74447	3.3077714	224.6133	223.2579	7.023845	33.68831
1575	5.74387	3.3077400	224.8172	223.4605	7.023939	33.68845
1576	5.74341	3.3078094	225.0275	223.6694	7.023963	33.68958
1577	5.74321	3.3077717	225.2345	223.8751	7.024012	33.68926
1578	5.74316	3.3077717	225.4385	224.0777	7.024023	33.68921
1579	5.74291	3.3076773	225.6396	224.2774	7.024107	33.68829
1580	5.74261	3.3077404	225.8435	224.4800	7.024116	33.68920
1581	5.74200	3.3077719	226.0508	224.6860	7.024178	33.69006
1582	5.74150	3.3077468	226.2608	224.8946	7.024257	33.69017
1583	5.74135	3.3077721	226.4679	225.1003	7.024267	33.69051
1584	5.74130	3.3077721	226.6749	225.3060	7.024278	33.69045
1585	5.74094	3.3077407	226.8852	225.5149	7.024342	33.69034
1586	5.74059	3.3077723	227.0919	225.7202	7.024373	33.69095
1587	5.74049	3.3077723	227.2965	225.9235	7.024390	33.69095
1588	5.74029	3.3077787	227.5064	226.1319	7.024416	33.69112
1589	5.74034	3.3077410	227.7227	226.3469	7.024435	33.69053
1590	5.73993	3.3077410	227.9207	226.5436	7.024488	33.69084
1591	5.73968	3.3077411	228.1276	226.7491	7.024524	33.69099
1592	5.73918	3.3077412	228.3347	226.9548	7.024590	33.69139
1593	5.73873	3.3077098	228.5388	227.1576	7.024666	33.69138
1594	5.73817	3.3076909	228.7458	227.3632	7.024748	33.69162
1595	5.73767	3.3077099	228.9499	227.5659	7.024804	33.69223
1596	5.73746	3.3077100	229.1570	227.7717	7.024833	33.69233
1597	5.73721	3.3077100	229.3639	227.9773	7.024869	33.69248
1598	5.73686	3.3077101	229.5681	228.1801	7.024916	33.69273
1599	5.73656	3.3077102	229.7659	228.3766	7.024957	33.69294
1600	5.73646	3.3077480	229.9732	228.5826	7.024955	33.69336
1601	5.73646	3.3077418	230.1741	228.7821	7.024963	33.69319
1602	5.73646	3.3077104	230.3810	228.9876	7.024984	33.69273
1603	5.73625	3.3077419	230.5881	229.1934	7.024997	33.69319
1604	5.73625	3.3077420	230.7863	229.3903	7.025001	33.69309
1605	5.73610	3.3077106	230.9780	229.5807	7.025040	33.69279
1606	5.73560	3.3076917	231.1883	229.7896	7.025116	33.69297
1607	5.73525	3.3077107	231.3922	229.9922	7.025154	33.69344
1608	5.73499	3.3077108	231.6024	230.2009	7.025189	33.69358
1609	5.73479	3.3077108	231.8123	230.4095	7.025219	33.69368
1610	5.73439	3.3076479	232.0105	230.6064	7.025305	33.69327
1611	5.73353	3.3075535	232.2114	230.8059	7.025463	33.69296
1612	5.73207	3.3074465	232.4154	231.0086	7.025701	33.69311
1613	5.72990	3.3074276	232.6287	231.2205	7.025979	33.69495
1614	5.72784	3.3073647	232.8603	231.4505	7.026269	33.69618
1615	5.72633	3.3073270	233.1009	231.6895	7.026478	33.69715
1616	5.72512	3.3073271	233.3258	231.9130	7.026630	33.69824
1617	5.72421	3.3073272	233.5359	232.1217	7.026745	33.69904
1618	5.72381	3.3073588	233.7339	232.3184	7.026782	33.69970
1619	5.72370	3.3073651	233.9381	232.5212	7.026796	33.69977
1620	5.72345	3.3073652	234.1422	232.7240	7.026831	33.69992
1621	5.72340	3.3073968	234.3432	232.9237	7.026826	33.70023
1622	5.72340	3.3073653	234.5563	233.1353	7.026847	33.69977
1623	5.72330	3.3073654	234.7602	233.3379	7.026864	33.69977
1624	5.72315	3.3073907	234.9736	233.5498	7.026874	33.70010
1625	5.72310	3.3073655	235.1835	233.7584	7.026898	33.69976
1626	5.72305	3.3073656	235.3845	233.9580	7.026909	33.69971
1627	5.72265	3.3073657	235.6006	234.1727	7.026963	33.70000
1628	5.72245	3.3073657	235.8049	234.3757	7.026992	33.70010
1629	5.72245	3.3073973	236.0151	234.5845	7.026980	33.70036
1630	5.72224	3.3073596	236.2281	234.7961	7.027029	33.70002
1631	5.72214	3.3073659	236.4321	234.9987	7.027043	33.70009
1632	5.72209	3.3073975	236.6365	235.2017	7.027037	33.70040
1633	5.72204	3.3073661	236.8493	235.4131	7.027065	33.69999
1634	5.72179	3.3073976	237.0656	235.6280	7.027084	33.70049
1635	5.72154	3.3073662	237.2756	235.8366	7.027136	33.70028
1636	5.72134	3.3073915	237.4861	236.0457	7.027152	33.70066
1637	5.72108	3.3073979	237.7050	236.2632	7.027184	33.70088
1638	5.72093	3.3073979	237.9182	236.4750	7.027208	33.70092
1639	5.72103	3.3073665	238.1344	236.6897	7.027217	33.70036
1640	5.72088	3.3073666	238.3415	236.8955	7.027240	33.70041
1641	5.72063	3.3073666	238.5545	237.1071	7.027275	33.70055
1642	5.72023	3.3073289	238.7647	237.3158	7.027349	33.70042
1643	5.71988	3.3073290	238.9808	237.5305	7.027397	33.70067
1644	5.71937	3.3073668	239.2033	237.7515	7.027443	33.70149
1645	5.71897	3.3073291	239.4164	237.9632	7.027517	33.70136
1646	5.71846	3.3072977	239.6266	238.1720	7.027599	33.70140
1647	5.71806	3.3073293	239.8366	238.3806	7.027637	33.70205
1648	5.71786	3.3073293	240.0470	238.5896	7.027666	33.70215
1649	5.71756	3.3073294	240.2692	238.8103	7.027708	33.70234
1650	5.71736	3.3073295	240.4764	239.0161	7.027737	33.70244
1651	5.71715	3.3073295	240.6894	239.2277	7.027767	33.70253
1652	5.71690	3.3072981	240.8996	239.4365	7.027819	33.70233
1653	5.71680	3.3072982	241.1094	239.6449	7.027836	33.70232
1654	5.71615	3.3072668	241.3350	239.8691	7.027937	33.70251
1655	5.71564	3.3072731	241.5573	240.0898	7.028000	33.70297
1656	5.71509	3.3072669	241.7735	240.3046	7.028076	33.70335
1657	5.71474	3.3072355	241.9956	240.5252	7.028140	33.70323
1658	5.71443	3.3072671	242.2057	240.7340	7.028165	33.70379
1659	5.71418	3.3072986	242.4160	240.9429	7.028184	33.70429
1660	5.71408	3.3072672	242.6352	241.1606	7.028218	33.70393
1661	5.71398	3.3073303	242.8818	241.4056	7.028203	33.70462
1662	5.71398	3.3072988	243.1282	241.6503	7.028225	33.70414
1663	5.71393	3.3073304	243.3599	241.8804	7.028220	33.70443
1664	5.71393	3.3073305	243.5793	242.0984	7.028225	33.70432
1665	5.71393	3.3073684	243.7956	242.3132	7.028210	33.70464
1666	5.71378	3.3073306	244.0053	242.5216	7.028253	33.70426
1667	5.71368	3.3073622	244.2219	242.7367	7.028254	33.70461
1668	5.71373	3.3073308	244.4378	242.9511	7.028269	33.70410
1669	5.71353	3.3073686	244.6603	243.1722	7.028279	33.70461
1670	5.71317	3.3073309	244.8888	243.3991	7.028347	33.70443
1671	5.71292	3.3073688	245.1110	243.6199	7.028363	33.70499
1672	5.71282	3.3073311	245.3360	243.8433	7.028400	33.70456
1673	5.71277	3.3073626	245.5554	244.0613	7.028395	33.70485
1674	5.71262	3.3073690	245.7868	244.2911	7.028415	33.70496
1675	5.71252	3.3074006	246.0029	244.5058	7.028416	33.70531
1676	5.71242	3.3073691	246.2314	244.7328	7.028450	33.70494
1677	5.71227	3.3074007	246.4629	244.9628	7.028457	33.70533
1678	5.71237	3.3073693	246.6851	245.1835	7.028466	33.70477
1679	5.71186	3.3072749	246.9224	245.4192	7.028582	33.70408
1680	5.71111	3.3072686	247.1390	245.6344	7.028682	33.70466
1681	5.71060	3.3072372	247.3670	245.8609	7.028765	33.70469
1682	5.70995	3.3072373	247.5987	246.0910	7.028850	33.70523
1683	5.70960	3.3071429	247.8270	246.3177	7.028948	33.70440
1684	5.70889	3.3071115	248.0554	246.5446	7.029055	33.70464
1685	5.70778	3.3069730	248.2836	246.7713	7.029267	33.70406
1686	5.70657	3.3069856	248.5032	246.9894	7.029413	33.70530
1687	5.70542	3.3069857	248.7343	247.2190	7.029559	33.70634
1688	5.70481	3.3070488	248.9597	247.4429	7.029605	33.70755
1689	5.70451	3.3070174	249.1911	247.6727	7.029664	33.70738
1690	5.70406	3.3070490	249.4194	247.8995	7.029708	33.70808
1691	5.70395	3.3071246	249.6418	248.1204	7.029686	33.70892
1692	5.70416	3.3071436	249.8670	248.3440	7.029656	33.70882
1693	5.70411	3.3071122	250.0922	248.5678	7.029684	33.70840
1694	5.70385	3.3071122	250.3330	248.8069	7.029720	33.70854
1695	5.70370	3.3070493	250.5612	249.0336	7.029777	33.70786
1696	5.70315	3.3069549	250.7837	249.2546	7.029898	33.70724
1697	5.70239	3.3069739	251.0120	249.4814	7.029986	33.70809
1698	5.70189	3.3068921	251.2313	249.6993	7.030095	33.70756
1699	5.70129	3.3069236	251.4536	249.9200	7.030157	33.70841
1700	5.70078	3.3069237	251.6758	250.1408	7.030223	33.70880
1701	5.70043	3.3069238	251.9011	250.3645	7.030271	33.70904
1702	5.70023	3.3069239	252.1232	250.5852	7.030301	33.70913
1703	5.69998	3.3069113	252.3426	250.8031	7.030343	33.70913
1704	5.69967	3.3068925	252.5678	251.0268	7.030395	33.70911
1705	5.69957	3.3068926	252.7991	251.2565	7.030413	33.70909
1706	5.69937	3.3068927	253.0185	251.4745	7.030442	33.70919
1707	5.69902	3.3068927	253.2377	251.6922	7.030490	33.70943
1708	5.69862	3.3068298	253.4966	251.9494	7.030578	33.70899
1709	5.69801	3.3068866	253.7463	252.1974	7.030628	33.71011
1710	5.69746	3.3069245	253.9808	252.4303	7.030681	33.71098
1711	5.69731	3.3069246	254.2092	252.6572	7.030704	33.71101
1712	5.69705	3.3068931	254.4406	252.8870	7.030757	33.71079
1713	5.69685	3.3069562	254.6660	253.1109	7.030754	33.71160
1714	5.69680	3.3069248	254.8821	253.3256	7.030781	33.71118
1715	5.69630	3.3067674	255.1011	253.5431	7.030929	33.70980
1716	5.69529	3.3066730	255.3420	253.7823	7.031107	33.70961
1717	5.69408	3.3067360	255.5613	254.0002	7.031226	33.71142
1718	5.69353	3.3067361	255.7923	254.2297	7.031299	33.71186
1719	5.69333	3.3068307	256.0088	254.4447	7.031279	33.71303
1720	5.69343	3.3067678	256.2432	254.6775	7.031305	33.71210
1721	5.69353	3.3068308	256.4684	254.9012	7.031265	33.71260
1722	5.69348	3.3067616	256.6879	255.1193	7.031312	33.71175
1723	5.69318	3.3066735	256.8766	255.3067	7.031399	33.71096
1724	5.69232	3.3066735	257.0075	255.4366	7.031507	33.71175
1725	5.69187	3.3066735	257.0595	255.4883	7.031563	33.71218
1726	5.69146	3.3067365	257.0413	255.4702	7.031579	33.71331
1727	5.69157	3.3067680	256.9899	255.4191	7.031549	33.71359
1728	5.69202	3.3068877	256.9718	255.4012	7.031431	33.71450
1729	5.69277	3.3069255	256.9749	255.4042	7.031319	33.71417
1730	5.69338	3.3069255	257.0083	255.4375	7.031247	33.71355
1731	5.69363	3.3068625	257.0479	255.4768	7.031250	33.71257
1732	5.69363	3.3067995	257.0665	255.4952	7.031283	33.71184
1733	5.69323	3.3067365	257.0636	255.4923	7.031365	33.71153
1734	5.69277	3.3067932	257.0363	255.4652	7.031390	33.71264
1735	5.69272	3.3067995	256.9575	255.3870	7.031391	33.71280
1736	5.69272	3.3068310	256.8417	255.2720	7.031372	33.71322
1737	5.69298	3.3069254	256.7232	255.1542	7.031289	33.71409
1738	5.69358	3.3070199	256.6107	255.0425	7.031164	33.71461
1739	5.69449	3.3070513	256.4772	254.9100	7.031034	33.71413
1740	5.69524	3.3070638	256.3222	254.7559	7.030932	33.71360
1741	5.69580	3.3071142	256.1489	254.5839	7.030834	33.71370
1742	5.69625	3.3071141	255.9784	254.4145	7.030775	33.71333
1743	5.69675	3.3071771	255.8052	254.2424	7.030677	33.71363
1744	5.69731	3.3072400	255.6470	254.0854	7.030573	33.71387
1745	5.69791	3.3072084	255.4770	253.9164	7.030512	33.71299
1746	5.69831	3.3072147	255.3006	253.7412	7.030456	33.71275
1747	5.69857	3.3072083	255.1335	253.5753	7.030424	33.71251
1748	5.69882	3.3072713	254.9508	253.3938	7.030357	33.71306
1749	5.69917	3.3072712	254.7595	253.2037	7.030309	33.71280
1750	5.69937	3.3072711	254.5707	253.0162	7.030281	33.71269
1751	5.69988	3.3072711	254.3729	252.8198	7.030215	33.71229
1752	5.70013	3.3072773	254.1723	252.6205	7.030176	33.71221
1753	5.70053	3.3072709	253.9475	252.3973	7.030125	33.71185
1754	5.70088	3.3072393	253.7192	252.1704	7.030094	33.71125
1755	5.70093	3.3072078	253.5035	251.9562	7.030099	33.71095
1756	5.70103	3.3072077	253.2874	251.7416	7.030082	33.71096
1757	5.70123	3.3071446	253.0655	251.5211	7.030085	33.71015
1758	5.70123	3.3071257	252.8316	251.2888	7.030090	33.71006
1759	5.70123	3.3071445	252.5971	251.0559	7.030074	33.71039
1760	5.70134	3.3071444	252.3569	250.8173	7.030057	33.71040
1761	5.70149	3.3072073	252.1167	250.5787	7.030000	33.71108
1762	5.70204	3.3071758	251.8884	250.3519	7.029944	33.71029
1763	5.70239	3.3071757	251.6575	250.1226	7.029895	33.71005
1764	5.70270	3.3072449	251.4234	249.8901	7.029817	33.71065
1765	5.70305	3.3072070	251.1829	249.6512	7.029788	33.70999
1766	5.70345	3.3072069	250.9517	249.4215	7.029734	33.70970
1767	5.70360	3.3071754	250.7176	249.1889	7.029727	33.70931
1768	5.70375	3.3071438	250.4865	248.9594	7.029720	33.70892
1769	5.70380	3.3072067	250.2462	248.7208	7.029675	33.70970
1770	5.70395	3.3072129	250.0212	248.4973	7.029648	33.70973
1771	5.70431	3.3071751	249.7839	248.2615	7.029620	33.70907
1772	5.70456	3.3072380	249.5464	248.0256	7.029551	33.70965
1773	5.70486	3.3072379	249.3186	247.7994	7.029509	33.70946
1774	5.70521	3.3072693	249.0873	247.5696	7.029444	33.70958
1775	5.70567	3.3073007	248.8532	247.3371	7.029367	33.70960
1776	5.70622	3.3073007	248.6098	247.0953	7.029294	33.70916
1777	5.70657	3.3072754	248.3729	246.8600	7.029259	33.70865
1778	5.70683	3.3072690	248.1417	246.6303	7.029226	33.70844
1779	5.70703	3.3072689	247.9012	246.3914	7.029196	33.70836
1780	5.70733	3.3072689	247.6577	246.1496	7.029154	33.70817
1781	5.70748	3.3073003	247.4116	245.9051	7.029114	33.70850
1782	5.70804	3.3073695	247.1624	245.6576	7.029004	33.70886
1783	5.70889	3.3073631	246.9158	245.4126	7.028898	33.70805
1784	5.70980	3.3073693	246.6666	245.1651	7.028778	33.70734
1785	5.71050	3.3074007	246.4229	244.9230	7.028671	33.70711
1786	5.71106	3.3074636	246.1677	244.6695	7.028565	33.70740
1787	5.71171	3.3074950	245.9244	244.4278	7.028463	33.70722
1788	5.71242	3.3074950	245.6872	244.1923	7.028372	33.70664
1789	5.71302	3.3074508	245.4407	243.9474	7.028315	33.70566
1790	5.71327	3.3074948	245.1855	243.6938	7.028256	33.70603
1791	5.71373	3.3075262	244.9422	243.4522	7.028179	33.70605
1792	5.71413	3.3075261	244.6958	243.2075	7.028124	33.70577
1793	5.71458	3.3075261	244.4462	242.9595	7.028063	33.70545
1794	5.71489	3.3075260	244.2061	242.7210	7.028021	33.70526
1795	5.71504	3.3075133	243.9415	242.4581	7.028003	33.70510
1796	5.71529	3.3075573	243.6829	242.2013	7.027944	33.70548
1797	5.71574	3.3075572	243.4243	241.9444	7.027883	33.70515
1798	5.71610	3.3075256	243.1810	241.7028	7.027851	33.70456
1799	5.71620	3.3074941	242.9436	241.4669	7.027849	33.70423
1800	5.71630	3.3075570	242.6944	241.2194	7.027799	33.70496
1801	5.71655	3.3075695	242.4480	240.9746	7.027756	33.70497
1802	5.71700	3.3075568	242.1987	240.7270	7.027701	33.70450
1803	5.71710	3.3074937	241.9491	240.4790	7.027716	33.70381
1804	5.71705	3.3075252	241.6999	240.2315	7.027700	33.70434
1805	5.71715	3.3074621	241.4535	239.9867	7.027715	33.70365
1806	5.71720	3.3074935	241.2010	239.7360	7.027687	33.70408
1807	5.71746	3.3074808	240.9605	239.4970	7.027657	33.70381
1808	5.71761	3.3074933	240.7112	239.2494	7.027627	33.70392
1809	5.71791	3.3074933	240.4648	239.0046	7.027584	33.70374
1810	5.71816	3.3075247	240.2184	238.7599	7.027532	33.70397
1811	5.71872	3.3075246	239.9691	238.5122	7.027458	33.70354
1812	5.71907	3.3075245	239.7259	238.2706	7.027410	33.70331
1813	5.71932	3.3075118	239.4792	238.0255	7.027380	33.70304
1814	5.71962	3.3075243	239.2359	237.7839	7.027331	33.70300
1815	5.71993	3.3075243	238.9897	237.5394	7.027289	33.70282
1816	5.72023	3.3075242	238.7433	237.2945	7.027247	33.70264
1817	5.72063	3.3075241	238.4937	237.0466	7.027192	33.70236
1818	5.72103	3.3075555	238.2446	236.7992	7.027121	33.70244
1819	5.72134	3.3075113	237.9980	236.5542	7.027101	33.70176
1820	5.72174	3.3075239	237.7455	236.3034	7.027040	33.70163
1821	5.72204	3.3075553	237.5022	236.0617	7.026981	33.70180
1822	5.72239	3.3075237	237.2530	235.8141	7.026949	33.70122
1823	5.72275	3.3075236	237.0096	235.5724	7.026901	33.70099
1824	5.72300	3.3075235	236.7479	235.3124	7.026864	33.70086
1825	5.72335	3.3075423	236.5080	235.0741	7.026806	33.70084
1826	5.72355	3.3075234	236.2645	234.8322	7.026785	33.70055
1827	5.72370	3.3075233	236.0119	234.5813	7.026761	33.70052
1828	5.72391	3.3075232	235.7652	234.3362	7.026731	33.70045
1829	5.72426	3.3075231	235.5222	234.0948	7.026683	33.70021
1830	5.72431	3.3075230	235.2790	233.8533	7.026671	33.70028
1831	5.72431	3.3075104	235.0295	233.6054	7.026672	33.70027
1832	5.72471	3.3075229	234.7892	233.3667	7.026611	33.70013
1833	5.72476	3.3075228	234.5337	233.1128	7.026599	33.70020
1834	5.72491	3.3074912	234.2903	232.8711	7.026591	33.69982
1835	5.72502	3.3074911	234.0106	232.5932	7.026573	33.69985
1836	5.72532	3.3075226	233.7581	232.3424	7.026514	33.70003
1837	5.72547	3.3075414	233.4871	232.0732	7.026479	33.70023
1838	5.72557	3.3074909	233.2380	231.8258	7.026488	33.69968
1839	5.72572	3.3074593	233.0007	231.5900	7.026480	33.69929
1840	5.72582	3.3074592	232.7510	231.3420	7.026462	33.69932
1841	5.72582	3.3074592	232.5080	231.1006	7.026457	33.69944
1842	5.72587	3.3074591	232.2647	230.8589	7.026445	33.69951
1843	5.72617	3.3075094	232.0090	230.6049	7.026376	33.69990
1844	5.72713	3.3075849	231.7599	230.3574	7.026215	33.69993
1845	5.72814	3.3076163	231.5102	230.1094	7.026070	33.69940
1846	5.72965	3.3076477	231.2578	229.8586	7.025864	33.69837
1847	5.73081	3.3077106	231.0115	229.6139	7.025685	33.69805
1848	5.73202	3.3077420	230.7589	229.3630	7.025515	33.69732
1849	5.73328	3.3077482	230.5186	229.1243	7.025353	33.69626
1850	5.73429	3.3077418	230.2630	228.8704	7.025228	33.69531
1851	5.73520	3.3078048	230.0168	228.6258	7.025079	33.69524
1852	5.73595	3.3077732	229.7703	228.3809	7.024998	33.69425
1853	5.73656	3.3077731	229.5178	228.1301	7.024919	33.69377
1854	5.73706	3.3077730	229.2713	227.8852	7.024852	33.69339
1855	5.73726	3.3077792	229.0220	227.6376	7.024819	33.69338
1856	5.73757	3.3077728	228.7662	227.3835	7.024779	33.69314
1857	5.73777	3.3077413	228.5233	227.1422	7.024766	33.69270
1858	5.73782	3.3077727	228.2795	226.9000	7.024737	33.69313
1859	5.73802	3.3077726	228.0304	226.6525	7.024707	33.69305
1860	5.73812	3.3077725	227.7749	226.3987	7.024689	33.69308
1861	5.73842	3.3077787	227.5314	226.1568	7.024644	33.69297
1862	5.73878	3.3078039	227.2793	225.9063	7.024582	33.69302
1863	5.73913	3.3078038	227.0328	225.6615	7.024533	33.69279
1864	5.73943	3.3077722	226.7831	225.4135	7.024507	33.69226
1865	5.73993	3.3078036	226.5368	225.1688	7.024424	33.69224
1866	5.74044	3.3078035	226.2811	224.9147	7.024357	33.69186
1867	5.74079	3.3078349	226.0317	224.6670	7.024292	33.69199
1868	5.74104	3.3077719	225.7885	224.4254	7.024288	33.69114
1869	5.74130	3.3077718	225.5361	224.1747	7.024252	33.69102
1870	5.74140	3.3077717	225.2896	223.9298	7.024234	33.69104
1871	5.74165	3.3077716	225.0372	223.6791	7.024198	33.69091
1872	5.74180	3.3077400	224.7875	223.4310	7.024190	33.69053
1873	5.74190	3.3078093	224.5385	223.1836	7.024136	33.69134
1874	5.74225	3.3078029	224.2858	222.9326	7.024091	33.69104
1875	5.74296	3.3078343	224.0334	222.6818	7.023983	33.69082
1876	5.74346	3.3078027	223.7596	222.4099	7.023931	33.69009
1877	5.74397	3.3078026	223.4919	222.1439	7.023864	33.68972
1878	5.74467	3.3078025	223.2301	221.8838	7.023772	33.68915
1879	5.74538	3.3078087	222.9928	221.6481	7.023678	33.68863
1880	5.74593	3.3077708	222.7497	221.4065	7.023625	33.68777
1881	5.74609	3.3078338	222.4971	221.1556	7.023568	33.68846
1882	5.74664	3.3078337	222.2417	220.9019	7.023494	33.68803
1883	5.74694	3.3077706	221.9892	220.6510	7.023485	33.68714
1884	5.74714	3.3077390	221.7459	220.4094	7.023471	33.68671
1885	5.74730	3.3077767	221.4904	220.1555	7.023427	33.68711
1886	5.74780	3.3077703	221.2410	219.9077	7.023363	33.68666
1887	5.74835	3.3077388	220.9977	219.6661	7.023307	33.68587
1888	5.74901	3.3077387	220.7450	219.4150	7.023221	33.68534
1889	5.74977	3.3077701	220.4957	219.1673	7.023107	33.68507
1890	5.75042	3.3077700	220.2429	218.9162	7.023022	33.68454
1891	5.75113	3.3077762	219.9935	218.6685	7.022927	33.68403
1892	5.75204	3.3078013	219.7472	218.4238	7.022798	33.68353
1893	5.75274	3.3078012	219.4976	218.1758	7.022707	33.68295
1894	5.75335	3.3078012	219.2423	217.9221	7.022627	33.68248
1895	5.75400	3.3078011	218.9867	217.6683	7.022542	33.68195
1896	5.75451	3.3077695	218.7434	217.4265	7.022491	33.68121
1897	5.75501	3.3077442	218.4971	217.1818	7.022437	33.68055
1898	5.75567	3.3077693	218.2414	216.9279	7.022339	33.68030
1899	5.75627	3.3077692	217.9892	216.6772	7.022260	33.67983
1900	5.75698	3.3077691	217.7396	216.4293	7.022168	33.67924
1901	5.75789	3.3078006	217.4902	216.1815	7.022036	33.67882
1902	5.75869	3.3078320	217.2436	215.9365	7.021916	33.67849
1903	5.75960	3.3078319	216.9854	215.6800	7.021799	33.67772
1904	5.76041	3.3078633	216.7297	215.4260	7.021679	33.67739
1905	5.76106	3.3078632	216.4865	215.1844	7.021594	33.67686
1906	5.76192	3.3078946	216.2369	214.9364	7.021468	33.67649
1907	5.76288	3.3079260	215.9841	214.6852	7.021329	33.67601
1908	5.76374	3.3079259	215.7350	214.4378	7.021219	33.67528
1909	5.76470	3.3079258	215.4853	214.1897	7.021097	33.67445
1910	5.76540	3.3079258	215.2390	213.9450	7.021006	33.67387
1911	5.76591	3.3079257	214.9834	213.6911	7.020939	33.67349
1912	5.76641	3.3079256	214.7343	213.4436	7.020872	33.67311
1913	5.76702	3.3079570	214.4845	213.1955	7.020776	33.67299
1914	5.76752	3.3079254	214.2351	212.9477	7.020726	33.67225
1915	5.76797	3.3079568	213.9918	212.7060	7.020648	33.67228
1916	5.76853	3.3079567	213.7330	212.4489	7.020575	33.67185
1917	5.76913	3.3079567	213.4654	212.1831	7.020496	33.67138
1918	5.76974	3.3079566	213.2066	211.9259	7.020416	33.67091
1919	5.77040	3.3079565	212.9606	211.6815	7.020331	33.67038
1920	5.77085	3.3079564	212.7171	211.4396	7.020270	33.67004
1921	5.77156	3.3079563	212.4769	211.2009	7.020179	33.66946
1922	5.77226	3.3079562	212.2182	210.9439	7.020087	33.66888
1923	5.77272	3.3079561	211.9688	210.6961	7.020026	33.66855
1924	5.77337	3.3079876	211.7193	210.4483	7.019925	33.66838
1925	5.77383	3.3079875	211.4668	210.1975	7.019864	33.66805
1926	5.77453	3.3079874	211.2295	209.9617	7.019773	33.66747
1927	5.77504	3.3079873	210.9802	209.7140	7.019706	33.66709
1928	5.77589	3.3080124	210.7277	209.4631	7.019583	33.66664
1929	5.77701	3.3080186	210.4780	209.2151	7.019439	33.66573
1930	5.77806	3.3080500	210.2286	208.9673	7.019288	33.66516
1931	5.77923	3.3080815	209.9914	208.7317	7.019125	33.66447
1932	5.78044	3.3080814	209.7420	208.4838	7.018973	33.66339
1933	5.78155	3.3080813	209.4956	208.2390	7.018832	33.66241
1934	5.78276	3.3080749	209.2460	207.9911	7.018683	33.66125
1935	5.78362	3.3080811	208.9998	207.7465	7.018570	33.66059
1936	5.78473	3.3080810	208.7561	207.5044	7.018429	33.65961
1937	5.78538	3.3081124	208.5099	207.2598	7.018328	33.65943
1938	5.78624	3.3081123	208.2665	207.0179	7.018218	33.65870
1939	5.78679	3.3081122	208.0169	206.7700	7.018145	33.65827
1940	5.78745	3.3081311	207.7677	206.5224	7.018050	33.65795
1941	5.78826	3.3081121	207.5213	206.2775	7.017956	33.65705
1942	5.78917	3.3081120	207.2748	206.0327	7.017840	33.65627
1943	5.79018	3.3081119	207.0255	205.7850	7.017712	33.65539
1944	5.79119	3.3081433	206.7789	205.5400	7.017567	33.65486
1945	5.79225	3.3081432	206.5325	205.2952	7.017433	33.65393
1946	5.79341	3.3080990	206.2952	205.0594	7.017309	33.65239
1947	5.79442	3.3081115	206.0457	204.8116	7.017175	33.65165
1948	5.79548	3.3081430	205.8023	204.5697	7.017024	33.65107
1949	5.79639	3.3081114	205.5467	204.3158	7.016924	33.64994
1950	5.79750	3.3081113	205.3003	204.0710	7.016784	33.64896
1951	5.79845	3.3081112	205.0599	203.8321	7.016662	33.64812
1952	5.79926	3.3080418	204.8135	203.5873	7.016594	33.64666
1953	5.80037	3.3080480	204.5642	203.3397	7.016451	33.64575
1954	5.80128	3.3080479	204.3209	203.0979	7.016335	33.64496
1955	5.80229	3.3080163	204.0744	202.8530	7.016223	33.64372
1956	5.80310	3.3079847	203.8250	202.6053	7.016136	33.64269
1957	5.80431	3.3079847	203.5786	202.3604	7.015983	33.64160
1958	5.80547	3.3079783	203.3198	202.1033	7.015839	33.64050
1959	5.80663	3.3079215	203.0673	201.8525	7.015722	33.63883
1960	5.80785	3.3078899	202.8209	201.6076	7.015586	33.63739
1961	5.80916	3.3078898	202.5714	201.3598	7.015421	33.63621
1962	5.81037	3.3078582	202.3309	201.1208	7.015284	33.63477
1963	5.81168	3.3077951	202.0848	200.8763	7.015152	33.63287
1964	5.81284	3.3076816	201.8413	200.6344	7.015065	33.63056
1965	5.81416	3.3076059	201.5918	200.3865	7.014939	33.62852
1966	5.81522	3.3075743	201.3424	200.1387	7.014821	33.62724
1967	5.81638	3.3074482	201.1051	199.9030	7.014740	33.62478
1968	5.81744	3.3072844	200.8586	199.6581	7.014690	33.62200
1969	5.81865	3.3071583	200.6156	199.4166	7.014603	33.61949
1970	5.81956	3.3071078	200.3750	199.1776	7.014513	33.61814
1971	5.82072	3.3068116	200.1255	198.9296	7.014520	33.61377
1972	5.82143	3.3064336	199.8821	198.6878	7.014624	33.60892
1973	5.82183	3.3059863	199.6357	198.4430	7.014801	33.60360
1974	5.82204	3.3053879	199.3955	198.2043	7.015081	33.59677
1975	5.82204	3.3050351	199.1400	197.9505	7.015258	33.59291
1976	5.82264	3.3045186	198.8966	197.7087	7.015447	33.58661
1977	5.82411	3.3041847	198.6561	197.4698	7.015436	33.58151
1978	5.82603	3.3040272	198.4069	197.2221	7.015279	33.57795
1979	5.82835	3.3039011	198.1602	196.9771	7.015057	33.57434
1980	5.83047	3.3036429	197.9137	196.7322	7.014927	33.56945
1981	5.83285	3.3035168	197.6645	196.4845	7.014698	33.56579
1982	5.83507	3.3034663	197.4238	196.2454	7.014449	33.56314
1983	5.83719	3.3034222	197.1656	195.9888	7.014208	33.56066
1984	5.83906	3.3033906	196.9189	195.7438	7.013992	33.55858
1985	5.84068	3.3033590	196.6786	195.5050	7.013807	33.55673
1986	5.84215	3.3033589	196.4384	195.2663	7.013623	33.55540
1987	5.84346	3.3033588	196.1860	195.0155	7.013458	33.55422
1988	5.84472	3.3033272	195.9485	194.7796	7.013316	33.55273
1989	5.84619	3.3033460	195.7020	194.5346	7.013122	33.55161
1990	5.84791	3.3034215	195.4528	194.2871	7.012869	33.55088
1991	5.85038	3.3034529	195.2095	194.0454	7.012547	33.54890
1992	5.85311	3.3034528	194.9688	193.8062	7.012210	33.54631
1993	5.85615	3.3034527	194.7194	193.5584	7.011836	33.54343
1994	5.85933	3.3034211	194.4729	193.3135	7.011460	33.54004
1995	5.86277	3.3034021	194.2265	193.0687	7.011047	33.53654
1996	5.86636	3.3033579	193.9800	192.8237	7.010629	33.53260
1997	5.86980	3.3033577	193.7339	192.5792	7.010206	33.52932
1998	5.87293	3.3033262	193.4842	192.3312	7.009837	33.52598
1999	5.87581	3.3033260	193.2376	192.0861	7.009481	33.52325
2000	5.87799	3.3033259	192.9732	191.8234	7.009212	33.52122
2001	5.88006	3.3033258	192.7055	191.5574	7.008954	33.51930
2002	5.88183	3.3033131	192.4496	191.3032	7.008740	33.51753
2003	5.88350	3.3033571	192.2066	191.0617	7.008509	33.51649
2004	5.88472	3.3032941	191.9631	190.8198	7.008389	33.51470
2005	5.88598	3.3033255	191.7318	190.5900	7.008214	33.51392
2006	5.88699	3.3033568	191.4731	190.3329	7.008069	33.51340
2007	5.88801	3.3032938	191.2297	190.0911	7.007974	33.51181
2008	5.88881	3.3032811	190.9833	189.8463	7.007876	33.51099
2009	5.88973	3.3032307	190.7490	189.6135	7.007787	33.50963
2010	5.89064	3.3032306	190.5151	189.3811	7.007671	33.50885
2011	5.89134	3.3032305	190.2683	189.1359	7.007580	33.50827
2012	5.89220	3.3031674	190.0279	188.8971	7.007502	33.50683
2013	5.89317	3.3031359	189.7845	188.6551	7.007396	33.50564
2014	5.89413	3.3031043	189.5474	188.4196	7.007291	33.50445
2015	5.89504	3.3031042	189.3039	188.1777	7.007175	33.50367
2016	5.89595	3.3030412	189.0638	187.9391	7.007091	33.50218
2017	5.89706	3.3029781	188.8233	187.7002	7.006984	33.50048
2018	5.89873	3.3028836	188.5889	187.4672	7.006825	33.49789
2019	5.90121	3.3028835	188.3335	187.2135	7.006518	33.49556
2020	5.90374	3.3028519	188.1080	186.9894	7.006222	33.49281
2021	5.90582	3.3027384	187.8649	186.7479	7.006024	33.48960
2022	5.90830	3.3026628	187.6335	186.5180	7.005757	33.48641
2023	5.91123	3.3026627	187.3932	186.2792	7.005396	33.48363
2024	5.91366	3.3025996	187.1560	186.0435	7.005128	33.48063
2025	5.91548	3.3025617	186.9095	185.7986	7.004921	33.47853
2026	5.91726	3.3025616	186.6632	185.5538	7.004701	33.47690
2027	5.91862	3.3025616	186.4199	185.3121	7.004530	33.47567
2028	5.91994	3.3024985	186.1791	185.0729	7.004397	33.47378
2029	5.92085	3.3024984	185.9423	184.8375	7.004281	33.47299
2030	5.92186	3.3024354	185.7049	184.6016	7.004186	33.47140
2031	5.92277	3.3023408	185.4583	184.3567	7.004118	33.46956
2032	5.92379	3.3023093	185.2149	184.1148	7.004006	33.46832
2033	5.92526	3.3021518	184.9716	183.8730	7.003904	33.46522
2034	5.92637	3.3020510	184.7341	183.6371	7.003816	33.46310
2035	5.92784	3.3018998	184.4937	183.3983	7.003710	33.46007
2036	5.92900	3.3018682	184.2474	183.1535	7.003580	33.45869
2037	5.93012	3.3018052	184.0040	182.9117	7.003471	33.45700
2038	5.93088	3.3017106	183.7635	182.6727	7.003423	33.45531
2039	5.93169	3.3015846	183.5262	182.4369	7.003384	33.45321
2040	5.93245	3.3015216	183.2828	182.1951	7.003319	33.45187
2041	5.93300	3.3014145	183.0334	181.9472	7.003301	33.45024
2042	5.93336	3.3013011	182.7991	181.7144	7.003311	33.44873
2043	5.93366	3.3011688	182.5619	181.4787	7.003337	33.44706
2044	5.93366	3.3011373	182.3126	181.2310	7.003347	33.44683
2045	5.93376	3.3010428	182.0326	180.9528	7.003377	33.44581
2046	5.93356	3.3009797	181.7678	180.6896	7.003428	33.44543
2047	5.93356	3.3009356	181.5335	180.4569	7.003446	33.44505
2048	5.93376	3.3008852	181.3172	180.2420	7.003442	33.44439
2049	5.93381	3.3008221	181.0772	180.0035	7.003463	33.44375
2050	5.93371	3.3008221	180.8367	179.7645	7.003470	33.44397
2051	5.93417	3.3007590	180.5781	179.5076	7.003442	33.44294
2052	5.93442	3.3006960	180.3011	179.2323	7.003437	33.44212
2053	5.93498	3.3007274	180.0001	178.9332	7.003346	33.44207
2054	5.93584	3.3007273	179.7261	178.6610	7.003236	33.44135
2055	5.93665	3.3006642	179.4766	178.4130	7.003165	33.43997
2056	5.93771	3.3006641	179.2455	178.1834	7.003030	33.43903
2057	5.93893	3.3005696	179.0082	177.9476	7.002926	33.43689
2058	5.94030	3.3005381	178.7648	177.7058	7.002771	33.43530
2059	5.94166	3.3005380	178.5183	177.4608	7.002600	33.43407
2060	5.94278	3.3005064	178.2718	177.2159	7.002476	33.43274
2061	5.94394	3.3004560	178.0345	176.9802	7.002355	33.43114
2062	5.94521	3.3004118	177.7910	176.7382	7.002219	33.42952
2063	5.94627	3.3003803	177.5479	176.4966	7.002101	33.42823
2064	5.94724	3.3003487	177.3103	176.2605	7.001995	33.42704
2065	5.94805	3.3003171	177.0945	176.0461	7.001908	33.42600
2066	5.94866	3.3003171	176.9057	175.8585	7.001830	33.42549
2067	5.94931	3.3003170	176.7291	175.6830	7.001746	33.42493
2068	5.94972	3.3002729	176.5346	175.4898	7.001715	33.42413
2069	5.95017	3.3002539	176.3337	175.2901	7.001665	33.42356
2070	5.95058	3.3003168	176.1329	175.0906	7.001579	33.42397
2071	5.95093	3.3002853	175.9261	174.8851	7.001548	33.42337
2072	5.95149	3.3002223	175.7132	174.6735	7.001508	33.42222
2073	5.95195	3.3001907	175.4880	174.4497	7.001464	33.42152
2074	5.95311	3.3001529	175.2508	174.2140	7.001337	33.42007
2075	5.95473	3.3000961	175.0103	173.9751	7.001164	33.41795
2076	5.95656	3.3000645	174.7851	173.7513	7.000954	33.41591
2077	5.95869	3.3000330	174.5416	173.5094	7.000707	33.41357
2078	5.96071	3.3000014	174.2921	173.2615	7.000472	33.41134
2079	5.96274	3.3000013	174.0244	172.9954	7.000220	33.40948
2080	5.96462	3.3000327	173.7750	172.7477	6.999971	33.40810
2081	5.96649	3.3000011	173.5316	172.5058	6.999755	33.40602
2082	5.96832	3.3000010	173.2760	172.2518	6.999528	33.40435
2083	5.97019	3.3000009	173.0295	172.0069	6.999295	33.40262
2084	5.97197	3.3000323	172.7827	171.7616	6.999059	33.40134
2085	5.97359	3.3000322	172.5365	171.5169	6.998857	33.39987
2086	5.97521	3.3000636	172.2900	171.2721	6.998638	33.39874
2087	5.97638	3.3000320	172.0498	171.0333	6.998508	33.39736
2088	5.97749	3.3000634	171.7880	170.7732	6.998351	33.39674
2089	5.97845	3.3000947	171.5079	170.4949	6.998212	33.39628
2090	5.97998	3.3001261	171.2556	170.2442	6.998006	33.39526
2091	5.98195	3.3001890	171.0059	169.9961	6.997728	33.39414
2092	5.98418	3.3001889	170.7626	169.7543	6.997453	33.39206
2093	5.98667	3.3001888	170.5194	169.5126	6.997146	33.38973
2094	5.98900	3.3002201	170.2696	169.2644	6.996842	33.38791
2095	5.99128	3.3002389	170.0141	169.0105	6.996551	33.38600
2096	5.99346	3.3002514	169.7647	168.7627	6.996274	33.38412
2097	5.99554	3.3002828	169.5210	168.5205	6.996001	33.38254
2098	5.99783	3.3002827	169.2747	168.2758	6.995719	33.38042
2099	5.99996	3.3003140	169.0313	168.0339	6.995440	33.37879
2100	6.00188	3.3003454	168.7848	167.7890	6.995185	33.37737
2101	6.00376	3.3003768	168.5294	167.5352	6.994936	33.37600
2102	6.00554	3.3003893	168.2889	167.2962	6.994709	33.37451
2103	6.00731	3.3004081	168.0364	167.0452	6.994479	33.37310
2104	6.00878	3.3004080	167.7961	166.8065	6.994295	33.37177
2105	6.01010	3.3004394	167.5497	166.5616	6.994114	33.37094
2106	6.01137	3.3004707	167.3000	166.3135	6.993939	33.37017
2107	6.01269	3.3004706	167.0444	166.0596	6.993773	33.36900
2108	6.01365	3.3004768	166.8042	165.8208	6.993648	33.36824
2109	6.01477	3.3005334	166.5548	165.5730	6.993478	33.36790
2110	6.01584	3.3005648	166.3054	165.3252	6.993328	33.36732
2111	6.01685	3.3005962	166.0558	165.0772	6.993183	33.36680
2112	6.01802	3.3006276	165.8062	164.8291	6.993020	33.36613
2113	6.01919	3.3006275	165.5474	164.5719	6.992873	33.36510
2114	6.02030	3.3006274	165.3104	164.3364	6.992733	33.36412
2115	6.02121	3.3006021	165.0606	164.0882	6.992630	33.36306
2116	6.02203	3.3005957	164.8110	163.8402	6.992529	33.36232
2117	6.02279	3.3005956	164.5646	163.5953	6.992432	33.36169
2118	6.02355	3.3005641	164.3240	163.3562	6.992350	33.36070
2119	6.02401	3.3005640	164.0716	163.1054	6.992289	33.36038
2120	6.02472	3.3005954	163.8223	162.8577	6.992182	33.36015
2121	6.02517	3.3005638	163.5818	162.6187	6.992137	33.35947
2122	6.02578	3.3005700	163.3355	162.3740	6.992055	33.35906
2123	6.02624	3.3005637	163.0797	162.1198	6.991997	33.35867
2124	6.02695	3.3005951	162.8303	161.8719	6.991889	33.35844
2125	6.02781	3.3005635	162.5838	161.6270	6.991796	33.35736
2126	6.02883	3.3005634	162.3372	161.3819	6.991667	33.35649
2127	6.02979	3.3005948	162.0878	161.1341	6.991529	33.35601
2128	6.03081	3.3006262	161.8413	160.8891	6.991384	33.35549
2129	6.03208	3.3006576	161.5918	160.6412	6.991209	33.35471
2130	6.03319	3.3006575	161.3239	160.3750	6.991068	33.35375
2131	6.03421	3.3006259	161.0592	160.1120	6.990956	33.35253
2132	6.03527	3.3005943	160.8128	159.8671	6.990837	33.35125
2133	6.03604	3.3005313	160.5723	159.6281	6.990772	33.34991
2134	6.03675	3.3004683	160.3290	159.3863	6.990713	33.34862
2135	6.03720	3.3004178	160.0763	159.1352	6.990678	33.34773
2136	6.03751	3.3004052	159.8330	158.8934	6.990642	33.34741
2137	6.03807	3.3003421	159.5896	158.6516	6.990601	33.34628
2138	6.03837	3.3002791	159.3309	158.3945	6.990591	33.34540
2139	6.03868	3.3002790	159.0906	158.1556	6.990549	33.34522
2140	6.03923	3.3002475	158.8439	157.9105	6.990492	33.34444
2141	6.03995	3.3002474	158.6004	157.6686	6.990400	33.34386
2142	6.04055	3.3002347	158.3481	157.4178	6.990327	33.34324
2143	6.04116	3.3002157	158.1019	157.1731	6.990258	33.34255
2144	6.04213	3.3002156	157.8552	156.9280	6.990136	33.34172
2145	6.04335	3.3002785	157.6056	156.6800	6.989951	33.34135
2146	6.04558	3.3002784	157.3652	156.4410	6.989675	33.33927
2147	6.04787	3.3002783	157.1157	156.1931	6.989393	33.33715
2148	6.05030	3.3002782	156.8693	155.9482	6.989093	33.33488
2149	6.05376	3.3002655	156.6258	155.7062	6.988676	33.33146
2150	6.05802	3.3002779	156.3762	155.4582	6.988149	33.32753
2151	6.06280	3.3003408	156.1329	155.2164	6.987534	33.32367
2152	6.06793	3.3003406	155.8832	154.9683	6.986908	33.31875
2153	6.07321	3.3004034	155.6367	154.7233	6.986232	33.31439
2154	6.07860	3.3004348	155.3904	154.4786	6.985560	33.30958
2155	6.08343	3.3004661	155.1439	154.2336	6.984955	33.30531
2156	6.08770	3.3005038	154.9035	153.9947	6.984414	33.30166
2157	6.09227	3.3005288	154.6570	153.7497	6.983843	33.29758
2158	6.09685	3.3005916	154.4136	153.5079	6.983253	33.29391
2159	6.10107	3.3006230	154.1700	153.2658	6.982722	33.29025
2160	6.10529	3.3006858	153.9296	153.0269	6.982175	33.28693
2161	6.10915	3.3007172	153.6800	152.7789	6.981687	33.28362
2162	6.11241	3.3007422	153.4370	152.5374	6.981275	33.28083
2163	6.11546	3.3007799	153.1843	152.2862	6.980882	33.27838
2164	6.11805	3.3007798	152.9378	152.0412	6.980564	33.27596
2165	6.12050	3.3008112	152.7004	151.8054	6.980247	33.27404
2166	6.12243	3.3008111	152.4510	151.5575	6.980009	33.27226
2167	6.12431	3.3008424	152.2044	151.3125	6.979760	33.27089
2168	6.12589	3.3008423	151.9548	151.0644	6.979564	33.26947
2169	6.12721	3.3008674	151.7145	150.8256	6.979386	33.26857
2170	6.12858	3.3009051	151.4680	150.5807	6.979196	33.26777
2171	6.12986	3.3009050	151.2183	150.3325	6.979037	33.26665
2172	6.13143	3.3009679	150.9507	150.0665	6.978808	33.26593
2173	6.13347	3.3009992	150.6919	149.8093	6.978541	33.26442
2174	6.13566	3.3010621	150.4516	149.5706	6.978239	33.26310
2175	6.13769	3.3011249	150.2143	149.3347	6.977956	33.26192
2176	6.13988	3.3011626	149.9770	149.0989	6.977668	33.26032
2177	6.14171	3.3011877	149.7486	148.8719	6.977429	33.25892
2178	6.14339	3.3012254	149.5417	148.6663	6.977203	33.25780
2179	6.14507	3.3013197	149.3378	148.4637	6.976947	33.25731
2180	6.14660	3.3013197	149.1218	148.2490	6.976758	33.25592
2181	6.14808	3.3013510	148.9089	148.0375	6.976560	33.25493
2182	6.14950	3.3014013	148.7020	147.8319	6.976357	33.25420
2183	6.15128	3.3013824	148.4797	147.6110	6.976147	33.25235
2184	6.15261	3.3014138	148.2790	147.4115	6.975967	33.25151
2185	6.15449	3.3015396	148.0661	147.1999	6.975671	33.25117
2186	6.15673	3.3017598	147.8498	146.9849	6.975284	33.25155
2187	6.15979	3.3021060	147.6428	146.7792	6.974735	33.25253
2188	6.16416	3.3023892	147.4299	146.5677	6.974058	33.25151
2189	6.16885	3.3027228	147.2199	146.3589	6.973319	33.25076
2190	6.17410	3.3028989	147.0011	146.1414	6.972592	33.24770
2191	6.17878	3.3028673	146.7939	145.9356	6.972039	33.24287
2192	6.18245	3.3029932	146.5718	145.7148	6.971528	33.24080
2193	6.18602	3.3029616	146.3590	145.5034	6.971110	33.23706
2194	6.18923	3.3029615	146.1308	145.2766	6.970718	33.23404
2195	6.19152	3.3029047	145.8932	145.0405	6.970465	33.23128
2196	6.19330	3.3028039	145.6531	144.8019	6.970296	33.22853
2197	6.19437	3.3027723	145.4187	144.5689	6.970178	33.22724
2198	6.19549	3.3027093	145.1845	144.3361	6.970070	33.22556
2199	6.19621	3.3026147	144.9531	144.1062	6.970027	33.22392
2200	6.19707	3.3025832	144.7188	143.8733	6.969933	33.22284
2201	6.19758	3.3025831	144.5118	143.6676	6.969867	33.22244
2202	6.19845	3.3025452	144.3169	143.4739	6.969778	33.22127
2203	6.19911	3.3025452	144.1314	143.2895	6.969694	33.22071
2204	6.20028	3.3025451	143.9396	143.0989	6.969549	33.21966
2205	6.20191	3.3024821	143.7478	142.9084	6.969380	33.21746
2206	6.20339	3.3024190	143.5502	142.7119	6.969230	33.21541
2207	6.20441	3.3023875	143.3618	142.5247	6.969119	33.21415
2208	6.20553	3.3023874	143.1607	142.3248	6.968979	33.21315
2209	6.20650	3.3023621	142.9659	142.1312	6.968871	33.21202
2210	6.20803	3.3023873	142.7715	141.9380	6.968670	33.21090
2211	6.20971	3.3023872	142.5856	141.7533	6.968463	33.20935
2212	6.21124	3.3023871	142.3969	141.5658	6.968275	33.20795
2213	6.21252	3.3022926	142.2054	141.3755	6.968165	33.20575
2214	6.21343	3.3022925	142.0044	141.1757	6.968050	33.20495
2215	6.21430	3.3022736	141.8095	140.9820	6.967951	33.20399
2216	6.21522	3.3021665	141.6211	140.7948	6.967890	33.20199
2217	6.21573	3.3021349	141.4353	140.6101	6.967841	33.20123
2218	6.21624	3.3020719	141.2894	140.4651	6.967808	33.20010
2219	6.21654	3.3021033	141.2072	140.3835	6.967754	33.20019
2220	6.21695	3.3020404	141.1676	140.3440	6.967736	33.19911
2221	6.21716	3.3020089	141.1069	140.2837	6.967726	33.19859
2222	6.21736	3.3020340	140.9789	140.1566	6.967685	33.19873
2223	6.21767	3.3021032	140.8027	139.9814	6.967610	33.19929
2224	6.21848	3.3022606	140.6596	139.8392	6.967428	33.20032
2225	6.21960	3.3023549	140.5319	139.7123	6.967243	33.20034
2226	6.22108	3.3025815	140.3921	139.5733	6.966946	33.20150
2227	6.22312	3.3027074	140.2339	139.4161	6.966634	33.20099
2228	6.22506	3.3026947	140.0634	139.2467	6.966403	33.19904
2229	6.22613	3.3027072	139.8869	139.0713	6.966264	33.19822
2230	6.22695	3.3028016	139.7195	138.9049	6.966114	33.19856
2231	6.22792	3.3028330	139.5309	138.7174	6.965977	33.19805
2232	6.22888	3.3028645	139.3603	138.5479	6.965841	33.19754
2233	6.22980	3.3028959	139.1809	138.3697	6.965710	33.19708
2234	6.23072	3.3028958	139.0012	138.1911	6.965596	33.19628
2235	6.23159	3.3029335	138.8158	138.0067	6.965468	33.19594
2236	6.23251	3.3029272	138.6330	137.8251	6.965357	33.19506
2237	6.23342	3.3028956	138.4474	137.6407	6.965258	33.19391
2238	6.23465	3.3028641	138.2558	137.4502	6.965123	33.19246
2239	6.23572	3.3027695	138.0702	137.2658	6.965038	33.19045
2240	6.23648	3.3026750	137.8878	137.0845	6.964989	33.18874
2241	6.23725	3.3026309	137.6989	136.8967	6.964916	33.18759
2242	6.23827	3.3026434	137.5103	136.7094	6.964782	33.18683
2243	6.23924	3.3026119	137.3185	136.5187	6.964677	33.18563
2244	6.23985	3.3025110	137.1360	136.3374	6.964651	33.18399
2245	6.24062	3.3024480	136.9443	136.1468	6.964586	33.18264
2246	6.24148	3.3023535	136.7587	135.9624	6.964526	33.18083
2247	6.24245	3.3023220	136.5641	135.7689	6.964421	33.17963
2248	6.24363	3.3023030	136.3690	135.5750	6.964285	33.17837
2249	6.24495	3.3022588	136.1744	135.3816	6.964143	33.17668
2250	6.24613	3.3022273	135.9859	135.1943	6.964014	33.17528
2251	6.24715	3.3022272	135.7788	134.9885	6.963886	33.17438
2252	6.24832	3.3021327	135.5718	134.7827	6.963788	33.17229
2253	6.24949	3.3020697	135.3711	134.5833	6.963675	33.17054
2254	6.25031	3.3019374	135.1672	134.3807	6.963639	33.16837
2255	6.25077	3.3017547	134.9602	134.1749	6.963672	33.16599
2256	6.25082	3.3012196	134.7533	133.9693	6.963932	33.16007
2257	6.25031	3.3010244	134.5493	133.7666	6.964088	33.15850
2258	6.24949	3.3005207	134.3455	133.5640	6.964436	33.15378
2259	6.24863	3.3003004	134.1323	133.3521	6.964648	33.15227
2260	6.24807	3.2999541	133.9316	133.1527	6.964886	33.14906
2261	6.24771	3.2997463	133.7277	132.9500	6.965030	33.14719
2262	6.24796	3.2996959	133.5238	132.7473	6.965020	33.14648
2263	6.24847	3.2995700	133.3199	132.5447	6.965018	33.14468
2264	6.24939	3.2995070	133.1192	132.3452	6.964935	33.14318
2265	6.25072	3.2995069	132.9121	132.1394	6.964771	33.14199
2266	6.25205	3.2995697	132.7052	131.9338	6.964575	33.14150
2267	6.25332	3.2996955	132.5043	131.7340	6.964353	33.14176
2268	6.25506	3.2999850	132.3006	131.5316	6.963993	33.14339
2269	6.25786	3.3002367	132.0937	131.3260	6.963523	33.14356
2270	6.26144	3.3005828	131.8896	131.1231	6.962913	33.14404
2271	6.26531	3.3008344	131.6735	130.9083	6.962314	33.14317
2272	6.26925	3.3011491	131.4727	130.7088	6.961678	33.14295
2273	6.27374	3.3015330	131.2629	130.5003	6.960939	33.14295
2274	6.27828	3.3017847	131.0467	130.2854	6.960260	33.14144
2275	6.28272	3.3021182	130.8215	130.0616	6.959552	33.14094
2276	6.28727	3.3023826	130.5993	129.8407	6.958867	33.13957
2277	6.29161	3.3026091	130.3894	129.6322	6.958226	33.13796
2278	6.29570	3.3029553	130.1642	129.4083	6.957555	33.13795
2279	6.30040	3.3031755	129.9421	129.1876	6.956874	33.13594
2280	6.30423	3.3033014	129.7168	128.9637	6.956345	33.13372
2281	6.30735	3.3033768	129.4855	128.7338	6.955928	33.13164
2282	6.31016	3.3033012	129.2573	128.5070	6.955623	33.12818
2283	6.31200	3.3031436	129.0381	128.2891	6.955477	33.12474
2284	6.31332	3.3029861	128.8100	128.0624	6.955392	33.12181
2285	6.31414	3.3027972	128.5816	127.8354	6.955384	33.11903
2286	6.31455	3.3025767	128.3595	127.6147	6.955441	33.11629
2287	6.31440	3.3019723	128.1376	127.3941	6.955760	33.10982
2288	6.31281	3.3010657	127.9062	127.1641	6.956402	33.10139
2289	6.30949	3.3007068	127.6778	126.9371	6.956978	33.10074
2290	6.30637	3.3003920	127.4527	126.7133	6.957506	33.10037
2291	6.30367	3.3000143	127.2243	126.4864	6.958018	33.09891
2292	6.30096	3.2995989	127.0023	126.2657	6.958548	33.09703
2293	6.29835	3.2993471	126.7708	126.0357	6.958984	33.09687
2294	6.29611	3.2989316	126.5397	125.8059	6.959459	33.09455
2295	6.29345	3.2987491	126.3202	125.5878	6.959866	33.09520
2296	6.29151	3.2985288	126.0892	125.3582	6.960205	33.09475
2297	6.28962	3.2984029	125.8611	125.1315	6.960491	33.09530
2298	6.28834	3.2983084	125.6450	124.9168	6.960688	33.09559
2299	6.28722	3.2981825	125.4168	124.6899	6.960882	33.09540
2300	6.28635	3.2981132	125.1946	124.4690	6.961016	33.09558
2301	6.28564	3.2980628	124.9694	124.2452	6.961123	33.09582
2302	6.28543	3.2980816	124.7320	124.0093	6.961132	33.09634
2303	6.28574	3.2982452	124.5096	123.7882	6.961008	33.09797
2304	6.28737	3.2987800	124.2848	123.5648	6.960536	33.10245
2305	6.29141	3.2990631	124.0562	123.3376	6.959902	33.10179
2306	6.29636	3.2993147	123.8279	123.1107	6.959174	33.09988
2307	6.30137	3.2996922	123.6029	122.8870	6.958377	33.09933
2308	6.30648	3.3002208	123.3744	122.6599	6.957490	33.10036
2309	6.31261	3.3006109	123.1433	122.4303	6.956551	33.09885
2310	6.31925	3.3012151	122.9241	122.2124	6.955443	33.09922
2311	6.32620	3.3012779	122.6958	121.9855	6.954571	33.09328
2312	6.33157	3.3018444	122.4739	121.7650	6.953636	33.09447
2313	6.33761	3.3021905	122.2395	121.5319	6.952731	33.09258
2314	6.34359	3.3024737	122.0111	121.3049	6.951865	33.09003
2315	6.34911	3.3027443	121.7861	121.0813	6.951061	33.08778
2316	6.35397	3.3031408	121.5609	120.8575	6.950273	33.08758
2317	6.35888	3.3035185	121.3293	120.6273	6.949488	33.08712
2318	6.36471	3.3038017	121.1013	120.4007	6.948641	33.08472
2319	6.37065	3.3040598	120.8395	120.1404	6.947793	33.08195
2320	6.37628	3.3044690	120.5931	119.8956	6.946907	33.08116
2321	6.38324	3.3047207	120.3647	119.6686	6.945940	33.07731
2322	6.39015	3.3049095	120.1487	119.4538	6.945012	33.07281
2323	6.39635	3.3051676	119.9207	119.2272	6.944135	33.06978
2324	6.40234	3.3053249	119.6889	118.9969	6.943332	33.06583
2325	6.40731	3.3055137	119.4640	118.7733	6.942637	33.06322
2326	6.41171	3.3056711	119.2447	118.5554	6.942026	33.06080
2327	6.41586	3.3057969	119.0165	118.3286	6.941461	33.05829
2328	6.41919	3.3059921	118.7913	118.1048	6.940959	33.05734
2329	6.42247	3.3061746	118.5602	117.8750	6.940469	33.05630
2330	6.42554	3.3064013	118.3319	117.6481	6.939983	33.05594
2331	6.42934	3.3066846	118.1096	117.4271	6.939381	33.05552
2332	6.43364	3.3067475	117.8783	117.1972	6.938829	33.05216
2333	6.43707	3.3067789	117.6533	116.9736	6.938398	33.04929
2334	6.43948	3.3069552	117.4310	116.7526	6.938016	33.04902
2335	6.44241	3.3070307	117.2119	116.5349	6.937624	33.04714
2336	6.44492	3.3070621	116.9775	116.3019	6.937302	33.04517
2337	6.44717	3.3070935	116.7526	116.0783	6.937012	33.04344
2338	6.44927	3.3071564	116.5179	115.8451	6.936723	33.04222
2339	6.45092	3.3071563	116.2956	115.6241	6.936522	33.04074
2340	6.45225	3.3071058	116.0706	115.4005	6.936383	33.03900
2341	6.45322	3.3070301	115.8455	115.1767	6.936300	33.03733
2342	6.45394	3.3069356	115.6202	114.9528	6.936256	33.03569
2343	6.45409	3.3069040	115.3919	114.7259	6.936248	33.03530
2344	6.45440	3.3068724	115.1666	114.5019	6.936223	33.03477
2345	6.45456	3.3068408	114.9353	114.2721	6.936215	33.03438
2346	6.45512	3.3069542	114.7101	114.0483	6.936086	33.03520
2347	6.45599	3.3069667	114.4880	113.8275	6.935970	33.03460
2348	6.45748	3.3071556	114.2630	113.6038	6.935693	33.03537
2349	6.46035	3.3071870	114.0408	113.3829	6.935329	33.03304
2350	6.46307	3.3071554	113.8122	113.1557	6.935014	33.03017
2351	6.46558	3.3071238	113.5902	112.9351	6.934725	33.02750
2352	6.46799	3.3070733	113.3679	112.7142	6.934457	33.02472
2353	6.47025	3.3070606	113.1459	112.4935	6.934188	33.02250
2354	6.47230	3.3070920	112.9328	112.2817	6.933922	33.02097
2355	6.47435	3.3070604	112.7015	112.0518	6.933688	33.01875
2356	6.47635	3.3070288	112.4795	111.8311	6.933459	33.01657
2357	6.47830	3.3069657	112.2512	111.6042	6.933253	33.01410
2358	6.48000	3.3065877	112.0166	111.3710	6.933234	33.00839
2359	6.48107	3.3062097	111.7913	111.1471	6.933290	33.00327
2360	6.48138	3.3059828	111.5631	110.9203	6.933361	33.00057
2361	6.48133	3.3052899	111.3379	110.6964	6.933709	32.99306
2362	6.47979	3.3044963	111.1099	110.4697	6.934285	32.98587
2363	6.47784	3.3044333	110.8904	110.2516	6.934545	32.98716
2364	6.47641	3.3039924	110.6440	110.0067	6.934932	32.98379
2365	6.47630	3.3033438	110.4158	109.7799	6.935264	32.97682
2366	6.47682	3.3028841	110.1906	109.5560	6.935428	32.97134
2367	6.47687	3.3023425	109.9716	109.3383	6.935688	32.96540
2368	6.47676	3.3020906	109.7402	109.1084	6.935821	32.96282
2369	6.47692	3.3019646	109.5209	108.8903	6.935861	32.96139
2370	6.47712	3.3018072	109.2988	108.6695	6.935910	32.95955
2371	6.47769	3.3015049	109.0704	108.4425	6.935989	32.95577
2372	6.47784	3.3013663	108.8424	108.2159	6.936035	32.95420
2373	6.47815	3.3012404	108.6232	107.9980	6.936056	32.95261
2374	6.47836	3.3009192	108.3979	107.7741	6.936188	32.94897
2375	6.47856	3.3005415	108.1636	107.5412	6.936347	32.94470
2376	6.47851	3.3002896	107.9473	107.3262	6.936474	32.94207
2377	6.47805	3.2999119	107.7285	107.1087	6.936714	32.93844
2378	6.47759	3.2994083	107.5001	106.8817	6.937016	32.93342
2379	6.47707	3.2992761	107.2749	106.6578	6.937139	32.93256
2380	6.47707	3.2988669	107.0498	106.4341	6.937339	32.92814
2381	6.47805	3.2988039	106.8184	106.2041	6.937248	32.92661
2382	6.48015	3.2987409	106.5931	105.9802	6.937023	32.92400
2383	6.48354	3.2986778	106.3743	105.7627	6.936644	32.92014
2384	6.48713	3.2986148	106.1397	105.5295	6.936240	32.91609
2385	6.49108	3.2986273	105.9235	105.3146	6.935756	32.91253
2386	6.49549	3.2986460	105.6862	105.0787	6.935213	32.90860
2387	6.49950	3.2987403	105.4732	104.8670	6.934682	32.90589
2388	6.50345	3.2987717	105.2450	104.6401	6.934188	32.90254
2389	6.50694	3.2988660	105.0229	104.4193	6.933718	32.90033
2390	6.51018	3.2988658	104.8005	104.1983	6.933326	32.89732
2391	6.51274	3.2988972	104.5753	103.9744	6.932998	32.89531
2392	6.51464	3.2988908	104.3471	103.7476	6.932768	32.89352
2393	6.51649	3.2989285	104.1249	103.5267	6.932523	32.89226
2394	6.51793	3.2988655	103.8934	103.2967	6.932378	32.89029
2395	6.51906	3.2988969	103.6712	103.0758	6.932222	32.88966
2396	6.51998	3.2989282	103.4432	102.8491	6.932091	32.88923
2397	6.52091	3.2988967	103.2208	102.6281	6.931991	32.88810
2398	6.52163	3.2988966	102.9957	102.4043	6.931900	32.88751
2399	6.52230	3.2989532	102.7676	102.1776	6.931787	32.88760
2400	6.52327	3.2989279	102.5423	101.9537	6.931678	32.88649
2401	6.52399	3.2988964	102.3139	101.7266	6.931603	32.88556
2402	6.52445	3.2988963	102.0887	101.5027	6.931542	32.88523
2403	6.52497	3.2988962	101.8665	101.2818	6.931476	32.88484
2404	6.52543	3.2988962	101.6445	101.0612	6.931416	32.88450
2405	6.52610	3.2988017	101.4069	100.8250	6.931378	32.88293
2406	6.52666	3.2987450	101.1878	100.6073	6.931334	32.88186
2407	6.52707	3.2986757	100.9655	100.3863	6.931315	32.88081
2408	6.52718	3.2985497	100.7434	100.1655	6.931360	32.87943
2409	6.52743	3.2984552	100.5060	99.9296	6.931372	32.87825
2410	6.52738	3.2984237	100.2684	99.6934	6.931388	32.87807
2411	6.52748	3.2983922	100.0495	99.4758	6.931387	32.87772
2412	6.52753	3.2983606	99.8273	99.2549	6.931392	32.87743
2413	6.52759	3.2982913	99.6021	99.0311	6.931415	32.87673
2414	6.52753	3.2982346	99.3772	98.8074	6.931445	32.87626
2415	6.52753	3.2982346	99.1516	98.5832	6.931440	32.87637
2416	6.52769	3.2982345	98.9233	98.3563	6.931416	32.87633
2417	6.52795	3.2982659	98.6982	98.1326	6.931365	32.87654
2418	6.52820	3.2982658	98.4791	97.9147	6.931330	32.87639
2419	6.52877	3.2983287	98.2538	97.6908	6.931226	32.87665
2420	6.52933	3.2982594	98.0895	97.5275	6.931189	32.87542
2421	6.52969	3.2982027	97.9678	97.4064	6.931172	32.87451
2422	6.52990	3.2980076	97.8307	97.2702	6.931242	32.87222
2423	6.52990	3.2978187	97.6663	97.1068	6.931332	32.87021
2424	6.52990	3.2977872	97.5081	96.9495	6.931344	32.86994
2425	6.52985	3.2977557	97.3375	96.7800	6.931363	32.86972
2426	6.53000	3.2975669	97.1431	96.5867	6.931434	32.86758
2427	6.52995	3.2975416	96.9419	96.3867	6.931449	32.86745
2428	6.53015	3.2975038	96.7321	96.1782	6.931438	32.86694
2429	6.53082	3.2975667	96.5250	95.9722	6.931322	32.86709
2430	6.53226	3.2975666	96.3088	95.7574	6.931146	32.86581
2431	6.53401	3.2976609	96.0929	95.5427	6.930885	32.86528
2432	6.53591	3.2978496	95.8736	95.3248	6.930558	32.86564
2433	6.53832	3.2979439	95.6545	95.1070	6.930218	32.86447
2434	6.54099	3.2981137	95.4414	94.8952	6.929809	32.86388
2435	6.54397	3.2981702	95.2253	94.6803	6.929419	32.86174
2436	6.54670	3.2979750	95.0154	94.4716	6.929186	32.85707
2437	6.54819	3.2977547	94.7963	94.2539	6.929113	32.85331
2438	6.54886	3.2974400	94.5771	94.0360	6.929185	32.84929
2439	6.54860	3.2966220	94.3550	93.8152	6.929619	32.84061
2440	6.54752	3.2964961	94.1297	93.5913	6.929806	32.84037
2441	6.54644	3.2959487	93.9045	93.3674	6.930203	32.83546
2442	6.54495	3.2952629	93.6732	93.1374	6.930718	32.82943
2443	6.54326	3.2944136	93.4511	92.9166	6.931340	32.82178
2444	6.54079	3.2937154	93.2165	92.6835	6.931979	32.81655
2445	6.53801	3.2929292	92.9944	92.4627	6.932698	32.81063
2446	6.53529	3.2927405	92.7752	92.2448	6.933114	32.81127
2447	6.53272	3.2920487	92.5438	92.0148	6.933762	32.80620
2448	6.53062	3.2916336	92.3096	91.7820	6.934217	32.80375
2449	6.52913	3.2915078	92.0903	91.5640	6.934453	32.80389
2450	6.52866	3.2911619	91.8560	91.3311	6.934676	32.80062
2451	6.52820	3.2907217	91.6339	91.1103	6.934946	32.79631
2452	6.52769	3.2908474	91.4086	90.8864	6.934940	32.79830
2453	6.53015	3.2921426	91.1862	90.6652	6.933993	32.81036
2454	6.53843	3.2934002	90.9582	90.4386	6.932370	32.81642
2455	6.55107	3.2955764	90.7297	90.2115	6.929766	32.82844
2456	6.56824	3.2965765	90.5078	89.9908	6.927209	32.82311
2457	6.58541	3.2985458	90.2733	89.7577	6.924169	32.82848
2458	6.60604	3.2997790	90.0146	89.5006	6.921086	32.82242
2459	6.62730	3.3005970	89.7834	89.2707	6.918136	32.81116
2460	6.64749	3.3014214	89.5641	89.0527	6.915313	32.80101
2461	6.66733	3.3019877	89.3421	88.8320	6.912662	32.78836
2462	6.68398	3.3021763	89.1137	88.6051	6.910579	32.77461
2463	6.69600	3.3021572	88.8914	88.3841	6.909152	32.76302
2464	6.70394	3.3022704	88.6722	88.1661	6.908145	32.75678
2465	6.71080	3.3023647	88.4440	87.9393	6.907276	32.75137
2466	6.71704	3.3023331	88.2251	87.7217	6.906544	32.74516
2467	6.72159	3.3023015	87.9966	87.4945	6.906014	32.74059
2468	6.72494	3.3023328	87.7744	87.2737	6.905594	32.73783
2469	6.72757	3.3020998	87.5460	87.0466	6.905391	32.73287
2470	6.72964	3.3014827	87.3148	86.8168	6.905445	32.72423
2471	6.73026	3.3009413	87.0955	86.5987	6.905634	32.71779
2472	6.72938	3.3001544	86.8766	86.3811	6.906122	32.71008
2473	6.72762	3.2996130	86.6515	86.1574	6.906593	32.70591
2474	6.72577	3.2994242	86.4320	85.9392	6.906903	32.70571
2475	6.72535	3.2987633	86.2159	85.7244	6.907274	32.69895
2476	6.72540	3.2980143	85.9815	85.4914	6.907633	32.69078
2477	6.72546	3.2975926	85.7623	85.2735	6.907830	32.68620
2478	6.72515	3.2968061	85.5402	85.0527	6.908251	32.67795
2479	6.72509	3.2962020	85.3209	84.8347	6.908551	32.67147
2480	6.72520	3.2957615	85.0959	84.6110	6.908751	32.66664
2481	6.72525	3.2953525	84.8735	84.3899	6.908942	32.66220
2482	6.72520	3.2950694	84.6545	84.1722	6.909084	32.65924
2483	6.72504	3.2945661	84.4262	83.9453	6.909346	32.65396
2484	6.72463	3.2941760	84.1982	83.7185	6.909583	32.65018
2485	6.72380	3.2932702	83.9637	83.4854	6.910124	32.64112
2486	6.72081	3.2914402	83.7446	83.2676	6.911380	32.62396
2487	6.71374	3.2909372	83.5193	83.0437	6.912468	32.62527
2488	6.70678	3.2898055	83.3001	82.8257	6.913854	32.61956
2489	6.69945	3.2883220	83.0718	82.5989	6.915458	32.61033
2490	6.69084	3.2869078	82.8495	82.3779	6.917183	32.60308
2491	6.68197	3.2856510	82.6182	82.1479	6.918861	32.59781
2492	6.67279	3.2846646	82.3867	81.9178	6.920442	32.59579
2493	6.66475	3.2837976	82.1556	81.6881	6.921829	32.59402
2494	6.65811	3.2828239	81.9212	81.4550	6.923102	32.58974
2495	6.65198	3.2819445	81.6960	81.2311	6.924268	32.58600
2496	6.64687	3.2816932	81.4645	81.0010	6.924999	32.58820
2497	6.64368	3.2812535	81.2300	80.7679	6.925594	32.58651
2498	6.64193	3.2806569	81.0050	80.5441	6.926096	32.58171
2499	6.64064	3.2804370	80.7736	80.3141	6.926354	32.58063
2500	6.64075	3.2807823	80.5362	80.0782	6.926165	32.58445
2501	6.64327	3.2809016	80.3111	79.8543	6.925799	32.58346
2502	6.64718	3.2808763	80.0767	79.6213	6.925337	32.57957
2503	6.65038	3.2808134	79.8331	79.3792	6.924980	32.57596
2504	6.65264	3.2808761	79.5956	79.1431	6.924673	32.57461
2505	6.65543	3.2807818	79.3706	78.9194	6.924381	32.57103
2506	6.65852	3.2805619	79.1511	78.7012	6.924115	32.56577
2507	6.66135	3.2804362	78.9139	78.4653	6.923833	32.56181
2508	6.66414	3.2806559	78.6794	78.2322	6.923386	32.56169
2509	6.66857	3.2812838	78.4511	78.0053	6.922539	32.56450
2510	6.67558	3.2811580	78.2170	77.7726	6.921756	32.55656
2511	6.68104	3.2806618	77.9884	77.5454	6.921343	32.54602
2512	6.68398	3.2798390	77.7634	77.3216	6.921394	32.53429
2513	6.68455	3.2794622	77.5379	77.0975	6.921508	32.52971
2514	6.68393	3.2787087	77.3159	76.8768	6.921950	32.52212
2515	6.68238	3.2776099	77.0815	76.6437	6.922675	32.51162
2516	6.67888	3.2770135	76.8471	76.4107	6.923385	32.50850
2517	6.67408	3.2752874	76.6189	76.1839	6.924810	32.49417
2518	6.66718	3.2744151	76.3815	75.9478	6.926066	32.49124
2519	6.66043	3.2737248	76.1499	75.7176	6.927213	32.49016
2520	6.65553	3.2730660	75.9217	75.4907	6.928122	32.48767
2521	6.65151	3.2720307	75.6873	75.2577	6.929113	32.48020
2522	6.64775	3.2713782	75.4620	75.0338	6.929883	32.47669
2523	6.64528	3.2709265	75.2247	74.7978	6.930399	32.47418
2524	6.64348	3.2704686	74.9963	74.5707	6.930838	32.47096
2525	6.64317	3.2702490	74.7711	74.3469	6.930980	32.46894
2526	6.64378	3.2699980	74.5429	74.1200	6.931025	32.46570
2527	6.64435	3.2697471	74.3144	73.8928	6.931077	32.46251
2528	6.64543	3.2695902	74.0834	73.6632	6.931020	32.45987
2529	6.64667	3.2692138	73.8518	73.4330	6.931053	32.45467
2530	6.64770	3.2688437	73.6236	73.2061	6.931108	32.44973
2531	6.64888	3.2685928	73.3891	72.9730	6.931085	32.44596
2532	6.65027	3.2683105	73.1639	72.7491	6.931053	32.44164
2533	6.65141	3.2680596	72.9267	72.5132	6.931037	32.43792
2534	6.65280	3.2678713	72.7013	72.2892	6.930958	32.43464
2535	6.65388	3.2677459	72.4730	72.0622	6.930886	32.43234
2536	6.65517	3.2675263	72.2356	71.8262	6.930835	32.42882
2537	6.65641	3.2672754	72.0012	71.5932	6.930805	32.42500
2538	6.65738	3.2668740	71.7731	71.3664	6.930882	32.41977
2539	6.65800	3.2665918	71.5417	71.1364	6.930943	32.41619
2540	6.65821	3.2663096	71.3070	70.9031	6.931053	32.41300
2541	6.65852	3.2661842	71.0698	70.6672	6.931073	32.41144
2542	6.65878	3.2657766	70.8476	70.4463	6.931240	32.40682
2543	6.65883	3.2655884	70.6164	70.2164	6.931322	32.40481
2544	6.65898	3.2652499	70.3910	69.9924	6.931466	32.40105
2545	6.65914	3.2651244	70.1595	69.7623	6.931505	32.39963
2546	6.65955	3.2649676	69.9251	69.5292	6.931528	32.39763
2547	6.66032	3.2648108	69.6786	69.2841	6.931508	32.39529
2548	6.66146	3.2647794	69.4443	69.0512	6.931382	32.39398
2549	6.66285	3.2646853	69.2161	68.8243	6.931257	32.39174
2550	6.66444	3.2645912	68.9877	68.5972	6.931106	32.38930
2551	6.66615	3.2644971	68.7472	68.3581	6.930943	32.38678
2552	6.66754	3.2644343	68.5128	68.1251	6.930802	32.38488
2553	6.66862	3.2643966	68.2877	67.9013	6.930686	32.38355
2554	6.66924	3.2643088	68.0593	67.6742	6.930650	32.38211
2555	6.67006	3.2642773	67.8250	67.4413	6.930562	32.38109
2556	6.67099	3.2642146	67.5936	67.2113	6.930477	32.37964
2557	6.67187	3.2640892	67.3622	66.9812	6.930428	32.37754
2558	6.67295	3.2639637	67.1308	66.7512	6.930356	32.37525
2559	6.67383	3.2638696	66.8966	66.5183	6.930292	32.37350
2560	6.67455	3.2634684	66.6742	66.2973	6.930399	32.36851
2561	6.67444	3.2631863	66.4398	66.0641	6.930546	32.36562
2562	6.67419	3.2628729	66.2024	65.8281	6.930728	32.36253
2563	6.67321	3.2624342	65.9740	65.6011	6.931058	32.35874
2564	6.67197	3.2621897	65.7397	65.3681	6.931323	32.35733
2565	6.67078	3.2618763	65.5176	65.1473	6.931616	32.35511
2566	6.66986	3.2616256	65.2803	64.9114	6.931847	32.35335
2567	6.66970	3.2614376	65.0580	64.6904	6.931954	32.35153
2568	6.67011	3.2613122	64.8264	64.4601	6.931962	32.34987
2569	6.67114	3.2612495	64.5922	64.2273	6.931864	32.34832
2570	6.67285	3.2611616	64.3640	64.0004	6.931698	32.34586
2571	6.67450	3.2611240	64.1326	63.7704	6.931513	32.34400
2572	6.67707	3.2610925	63.8921	63.5313	6.931214	32.34133
2573	6.67991	3.2609734	63.6700	63.3105	6.930927	32.33745
2574	6.68310	3.2608480	63.4354	63.0772	6.930600	32.33317
2575	6.68604	3.2607539	63.2039	62.8471	6.930288	32.32947
2576	6.68929	3.2605345	62.9726	62.6171	6.930001	32.32410
2577	6.69301	3.2603151	62.7444	62.3902	6.929659	32.31830
2578	6.69610	3.2601271	62.5132	62.1603	6.929375	32.31342
2579	6.69935	3.2599390	62.2788	61.9273	6.929072	32.30840
2580	6.70306	3.2597823	62.0505	61.7003	6.928699	32.30329
2581	6.70688	3.2595692	61.8189	61.4701	6.928340	32.29746
2582	6.71116	3.2593498	61.5938	61.2463	6.927929	32.29113
2583	6.71560	3.2591618	61.3654	61.0192	6.927484	32.28499
2584	6.72030	3.2590990	61.1310	60.7862	6.926946	32.27999
2585	6.72432	3.2588483	60.8998	60.5563	6.926581	32.27356
2586	6.72948	3.2585413	60.6776	60.3354	6.926108	32.26543
2587	6.73562	3.2580714	60.4492	60.1083	6.925597	32.25461
2588	6.74213	3.2577581	60.2118	59.8723	6.924965	32.24516
2589	6.74822	3.2572632	59.9836	59.6454	6.924472	32.23411
2590	6.75421	3.2565741	59.7491	59.4122	6.924088	32.22104
2591	6.76098	3.2560981	59.5178	59.1823	6.923505	32.20958
2592	6.76852	3.2559226	59.2773	58.9432	6.922680	32.20068
2593	6.77514	3.2557659	59.0490	58.7162	6.921958	32.19287
2594	6.78046	3.2553275	58.8210	58.4895	6.921530	32.18318
2595	6.78599	3.2551145	58.5895	58.2593	6.920966	32.17577
2596	6.79100	3.2549891	58.3550	58.0263	6.920420	32.16981
2597	6.79467	3.2547699	58.1267	57.7993	6.920083	32.16407
2598	6.79819	3.2546759	57.9015	57.5753	6.919702	32.15986
2599	6.80134	3.2544879	57.6730	57.3482	6.919411	32.15495
2600	6.80393	3.2542437	57.4415	57.1180	6.919216	32.14996
2601	6.80615	3.2540558	57.2104	56.8882	6.919036	32.14593
2602	6.80812	3.2538052	56.9728	56.6520	6.918919	32.14146
2603	6.81081	3.2535860	56.7508	56.4313	6.918699	32.13665
2604	6.81432	3.2535233	56.5225	56.2043	6.918303	32.13278
2605	6.81851	3.2535858	56.2820	55.9651	6.917764	32.12966
2606	6.82353	3.2537735	56.0598	55.7443	6.917064	32.12712
2607	6.82948	3.2538986	55.8284	55.5142	6.916283	32.12303
2608	6.83528	3.2540549	55.5910	55.2782	6.915506	32.11943
2609	6.84097	3.2542113	55.3563	55.0449	6.914741	32.11593
2610	6.84666	3.2542738	55.1312	54.8210	6.914022	32.11139
2611	6.85086	3.2543300	54.8939	54.5850	6.913486	32.10820
2612	6.85448	3.2543612	54.6655	54.3579	6.913032	32.10526
2613	6.85893	3.2542734	54.4374	54.1312	6.912536	32.10025
2614	6.86323	3.2541168	54.2087	53.9038	6.912092	32.09463
2615	6.86717	3.2538976	53.9867	53.6831	6.911723	32.08866
2616	6.87089	3.2535532	53.7523	53.4501	6.911440	32.08153
2617	6.87452	3.2531524	53.5180	53.2171	6.911197	32.07387
2618	6.87789	3.2527580	53.2835	52.9839	6.910982	32.06653
2619	6.88157	3.2521257	53.0581	52.7599	6.910846	32.05630
2620	6.88711	3.2516249	52.8330	52.5361	6.910422	32.04577
2621	6.89328	3.2511616	52.5956	52.3000	6.909904	32.03507
2622	6.89887	3.2510989	52.3733	52.0789	6.909259	32.02928
2623	6.90188	3.2508172	52.1360	51.8431	6.909031	32.02351
2624	6.90463	3.2503227	51.9046	51.6130	6.908939	32.01567
2625	6.90789	3.2498846	51.6762	51.3859	6.908757	32.00795
2626	6.91256	3.2496717	51.4450	51.1560	6.908297	32.00139
2627	6.91753	3.2495464	51.2226	50.9349	6.907757	31.99550
2628	6.92324	3.2493273	50.9943	50.7079	6.907175	31.98791
2629	6.92941	3.2492646	50.7631	50.4780	6.906461	31.98159
2630	6.93558	3.2491080	50.5409	50.2571	6.905793	31.97425
2631	6.94248	3.2491079	50.3095	50.0270	6.904961	31.96795
2632	6.94990	3.2491390	50.0721	49.7910	6.904052	31.96150
2633	6.95815	3.2491076	49.8437	49.5639	6.903073	31.95360
2634	6.96693	3.2487070	49.6275	49.3490	6.902213	31.94120
2635	6.97482	3.2482689	49.4023	49.1251	6.901477	31.92921
2636	6.98038	3.2478684	49.1709	48.8949	6.901002	31.91980
2637	6.98495	3.2473678	48.9426	48.6680	6.900694	31.91022
2638	6.98978	3.2471863	48.7143	48.4410	6.900199	31.90387
2639	6.99507	3.2469360	48.4800	48.2080	6.899681	31.89635
2640	7.00146	3.2468420	48.2517	47.9810	6.898957	31.88952
2641	7.00817	3.2463790	48.0204	47.7511	6.898375	31.87838
2642	7.01680	3.2461599	47.8009	47.5328	6.897444	31.86811
2643	7.02537	3.2460660	47.6215	47.3544	6.896459	31.85924
2644	7.03239	3.2460033	47.4540	47.1879	6.895645	31.85215
2645	7.03863	3.2459406	47.2928	47.0277	6.894926	31.84578
2646	7.04446	3.2455090	47.1315	46.8672	6.894435	31.83578
2647	7.05153	3.2455401	46.9639	46.7006	6.893570	31.82966
2648	7.05632	3.2452586	46.8026	46.5402	6.893130	31.82226
2649	7.06376	3.2450396	46.6259	46.3645	6.892343	31.81309
2650	7.07385	3.2449831	46.4404	46.1800	6.891158	31.80325
2651	7.08447	3.2448892	46.2485	45.9893	6.889930	31.79252
2652	7.09786	3.2447639	46.0355	45.7774	6.888386	31.77893
2653	7.10999	3.2442697	45.8193	45.5625	6.887170	31.76249
2654	7.12390	3.2438317	45.5758	45.3205	6.885714	31.74505
2655	7.13855	3.2435251	45.3322	45.0782	6.884106	31.72837
2656	7.15513	3.2433373	45.0918	44.8392	6.882211	31.71121
2657	7.17266	3.2433058	44.8514	44.6001	6.880128	31.69489
2658	7.18910	3.2433681	44.6230	44.3730	6.878131	31.68059
2659	7.20408	3.2435242	44.3855	44.1369	6.876262	31.66865
2660	7.21797	3.2447308	44.1541	43.9069	6.874019	31.66907
2661	7.23312	3.2469633	43.9319	43.6859	6.871133	31.67943
2662	7.25779	3.2531453	43.6976	43.4529	6.865218	31.72372
2663	7.30456	3.2560998	43.4723	43.2289	6.858237	31.71285
2664	7.35306	3.2612982	43.2440	43.0020	6.849991	31.72459
2665	7.40660	3.2656973	43.0187	42.7779	6.841549	31.72306
2666	7.46284	3.2687689	42.7964	42.5569	6.833439	31.70477
2667	7.51458	3.2700415	42.5623	42.3241	6.826728	31.67132
2668	7.55380	3.2687302	42.3368	42.0999	6.822724	31.62163
2669	7.57471	3.2658833	42.1115	41.8759	6.821602	31.57221
2670	7.58051	3.2633257	41.8830	41.6487	6.822122	31.53967
2671	7.57655	3.2605184	41.6550	41.4220	6.823909	31.51329
2672	7.56554	3.2588647	41.4357	41.2039	6.825985	31.50566
2673	7.55332	3.2572801	41.2042	40.9738	6.828172	31.49987
2674	7.54326	3.2570922	40.9760	40.7468	6.829444	31.50708
2675	7.53821	3.2575557	40.7416	40.5137	6.829817	31.51673
2676	7.53853	3.2565912	40.5224	40.2958	6.830232	31.50621
2677	7.53879	3.2542869	40.2972	40.0719	6.831287	31.48137
2678	7.53495	3.2519896	40.0719	39.8479	6.832825	31.46034
2679	7.52721	3.2493487	39.8406	39.6179	6.834986	31.43914
2680	7.51921	3.2489108	39.6183	39.3968	6.836136	31.44179
2681	7.51516	3.2493174	39.3839	39.1638	6.836418	31.44992
2682	7.52053	3.2533227	39.1526	38.9338	6.833880	31.48811
2683	7.54648	3.2585822	38.9213	38.7038	6.828319	31.52106
2684	7.59295	3.2648226	38.6929	38.4768	6.819886	31.54586
2685	7.65351	3.2671038	38.4675	38.2526	6.811680	31.51547
2686	7.71030	3.2715560	38.2392	38.0256	6.802914	31.51173
2687	7.76871	3.2731677	38.0110	37.7987	6.795309	31.47625
2688	7.81735	3.2768322	37.7797	37.5687	6.787903	31.47150
2689	7.86790	3.2801592	37.5604	37.3507	6.780445	31.46142
2690	7.91973	3.2838643	37.3383	37.1298	6.772678	31.45421
2691	7.97350	3.2840207	37.1189	36.9117	6.766342	31.40766
2692	8.01157	3.2856539	36.8939	36.6879	6.761158	31.39091
2693	8.04327	3.2865332	36.6622	36.4576	6.757066	31.37190
2694	8.07319	3.2878841	36.4371	36.2337	6.752968	31.35951
2695	8.10270	3.2900272	36.2149	36.0128	6.748558	31.35585
2696	8.14132	3.2920199	35.9805	35.7798	6.743168	31.34248
2697	8.18693	3.2928306	35.7552	35.5557	6.737519	31.31042
2698	8.22558	3.2937421	35.5359	35.3376	6.732634	31.28568
2699	8.25970	3.2952261	35.3139	35.1169	6.728015	31.27102
2700	8.29633	3.2966789	35.0854	34.8897	6.723129	31.25383
2701	8.33486	3.2994850	34.8632	34.6688	6.717414	31.24917
2702	8.38747	3.3034064	34.6348	34.4417	6.709589	31.24372
2703	8.45275	3.3050114	34.4095	34.2177	6.701372	31.20280
2704	8.51112	3.3084122	34.1905	33.9999	6.693155	31.18685
2705	8.57212	3.3108186	33.9559	33.7666	6.685101	31.15823
2706	8.63180	3.3137993	33.7367	33.5487	6.676956	31.13681
2707	8.69288	3.3158667	33.5083	33.3215	6.669077	31.10471
2708	8.74932	3.3186600	33.2833	33.0978	6.661417	31.08427
2709	8.80455	3.3205393	33.0550	32.8708	6.654315	31.05547
2710	8.85528	3.3216870	32.8356	32.6526	6.648056	31.02307
2711	8.89676	3.3228287	32.6165	32.4348	6.642856	30.99875
2712	8.93175	3.3250626	32.3853	32.2048	6.637916	30.99142
2713	8.97146	3.3265899	32.1629	31.9837	6.632760	30.97269
2714	9.01202	3.3284395	31.9346	31.7567	6.627372	30.95656
2715	9.05723	3.3293042	31.7156	31.5390	6.621900	30.92627
2716	9.10106	3.3293668	31.4932	31.3178	6.616938	30.88899
2717	9.13650	3.3297453	31.2740	31.0999	6.612786	30.86228
2718	9.16945	3.3301617	31.0518	30.8789	6.608902	30.83815
2719	9.20083	3.3313741	30.8264	30.6548	6.604851	30.82357
2720	9.23796	3.3315379	30.6013	30.4309	6.600614	30.79332
2721	9.27077	3.3320113	30.3821	30.2130	6.596731	30.76999
2722	9.30230	3.3319793	30.1629	29.9950	6.593213	30.74263
2723	9.32487	3.3329393	29.9407	29.7740	6.590271	30.73314
2724	9.34773	3.3338047	29.7183	29.5529	6.587341	30.72245
2725	9.37380	3.3338359	29.4991	29.3350	6.584411	30.70049
2726	9.39707	3.3349541	29.2801	29.1172	6.581330	30.69204
2727	9.42837	3.3355036	29.0548	28.8932	6.577601	30.67093
2728	9.46040	3.3363312	28.8385	28.6781	6.573673	30.65205
2729	9.49064	3.3380249	28.6073	28.4481	6.569580	30.64354
2730	9.52627	3.3419640	28.3606	28.2029	6.563937	30.65327
2731	9.58422	3.3460376	28.1294	27.9729	6.555772	30.64529
2732	9.65730	3.3524050	27.9099	27.7547	6.544983	30.64765
2733	9.74833	3.3588149	27.6878	27.5338	6.532231	30.63513
2734	9.84504	3.3608039	27.4656	27.3129	6.520750	30.57319
2735	9.92024	3.3641695	27.2434	27.0919	6.511086	30.54353
2736	9.98785	3.3673716	27.0303	26.8801	6.502344	30.51869
2737	10.04941	3.3721235	26.8050	26.6561	6.493643	30.51456
2738	10.11686	3.3738302	26.5857	26.4379	6.485578	30.47496
2739	10.17367	3.3750421	26.3695	26.2230	6.478889	30.43943
2740	10.21608	3.3764068	26.1443	25.9991	6.473713	30.41759
2741	10.25081	3.3777082	25.9283	25.7843	6.469403	30.40157
2742	10.28552	3.3791623	25.7061	25.5633	6.465039	30.38712
2743	10.31879	3.3802672	25.4898	25.3482	6.460978	30.37041
2744	10.34846	3.3818424	25.2676	25.1273	6.457118	30.36140
2745	10.38156	3.3849815	25.0452	24.9061	6.452257	30.36510
2746	10.42743	3.3874857	24.8203	24.6825	6.446281	30.35182
2747	10.48704	3.3911481	24.5977	24.4611	6.438367	30.33862
2748	10.55760	3.3944619	24.3847	24.2493	6.429434	30.31287
2749	10.62971	3.3971977	24.1625	24.0284	6.420588	30.28018
2750	10.69786	3.4002782	23.9493	23.8163	6.412049	30.25426
2751	10.76218	3.4013217	23.7364	23.6046	6.404750	30.21148
2752	10.81275	3.4036586	23.5111	23.3806	6.398417	30.19287
2753	10.85989	3.4051168	23.2949	23.1657	6.392808	30.16847
2754	10.90188	3.4058617	23.0815	22.9534	6.388039	30.14135
2755	10.93253	3.4068235	22.8595	22.7327	6.384393	30.12570
2756	10.95930	3.4080021	22.6434	22.5178	6.381079	30.11538
2757	10.98707	3.4091043	22.4303	22.3059	6.377692	30.10350
2758	11.01492	3.4109526	22.2110	22.0878	6.374006	30.09887
2759	11.04192	3.4100979	21.9918	21.8698	6.371475	30.06850
2760	11.05679	3.4114429	21.7727	21.6520	6.369368	30.06958
2761	11.07690	3.4134129	21.5565	21.4369	6.366461	30.07247
2762	11.10429	3.4144010	21.3433	21.2249	6.363172	30.05983
2763	11.12911	3.4153510	21.1242	21.0070	6.360173	30.04893
2764	11.15025	3.4171496	20.9140	20.7981	6.357233	30.04931
2765	11.17371	3.4179149	20.6920	20.5773	6.354454	30.03773
2766	11.19568	3.4186228	20.4817	20.3682	6.351856	30.02680
2767	11.21263	3.4198605	20.2718	20.1594	6.349584	30.02513
2768	11.22976	3.4206516	20.0586	19.9474	6.347467	30.01897
2769	11.24655	3.4214683	19.8456	19.7356	6.345378	30.01334
2770	11.26190	3.4220298	19.6353	19.5265	6.343540	30.00640
2771	11.27685	3.4221828	19.4283	19.3207	6.341904	29.99581
2772	11.29001	3.4225911	19.2122	19.1057	6.340358	29.98917
2773	11.30323	3.4231208	19.0022	18.8970	6.338759	29.98366
2774	11.31651	3.4236760	18.7951	18.6910	6.337144	29.97835
2775	11.33015	3.4240333	18.5881	18.4852	6.335569	29.97084
2776	11.34112	3.4240076	18.3841	18.2823	6.334424	29.96177
2777	11.34931	3.4245693	18.1802	18.0796	6.333343	29.96066
2778	11.35855	3.4249395	17.9855	17.8860	6.332228	29.95684
2779	11.36924	3.4256928	17.8150	17.7164	6.330812	29.95555
2780	11.38074	3.4251562	17.6747	17.5768	6.329810	29.94108
2781	11.38650	3.4256925	17.5318	17.4348	6.328997	29.94167
2782	11.39347	3.4262863	17.3886	17.2923	6.328034	29.94184
2783	11.40202	3.4266119	17.2396	17.1442	6.327010	29.93813
2784	11.41040	3.4270397	17.0659	16.9714	6.325964	29.93556
2785	11.41918	3.4271736	16.8954	16.8019	6.324989	29.92982
2786	11.42593	3.4272565	16.7129	16.6204	6.324247	29.92523
2787	11.43082	3.4274736	16.5240	16.4326	6.323649	29.92345
2788	11.43635	3.4276715	16.3290	16.2387	6.322990	29.92097
2789	11.44211	3.4279779	16.1435	16.0542	6.322266	29.91935
2790	11.44863	3.4280672	15.9517	15.8635	6.321546	29.91502
2791	11.45440	3.4279457	15.7414	15.6543	6.320986	29.90927
2792	11.45824	3.4271408	15.5407	15.4547	6.320890	29.89845
2793	11.45643	3.4270386	15.3397	15.2549	6.321115	29.89900
2794	11.45480	3.4273707	15.1417	15.0579	6.321155	29.90361
2795	11.45841	3.4277602	14.9499	14.8672	6.320624	29.90453
2796	11.46610	3.4278303	14.7398	14.6583	6.319789	29.89908
2797	11.47496	3.4284497	14.5418	14.4614	6.318621	29.89800
2798	11.48714	3.4287242	14.3533	14.2739	6.317239	29.89089
2799	11.49927	3.4288199	14.1492	14.0710	6.315931	29.88211
2800	11.51011	3.4295480	13.9451	13.8680	6.314514	29.88048
2801	11.52563	3.4301738	13.7442	13.6683	6.312650	29.87409
2802	11.54331	3.4302375	13.5402	13.4654	6.310775	29.86053
2803	11.55797	3.4308059	13.3424	13.2687	6.309024	29.85429
2804	11.57228	3.4306779	13.1324	13.0598	6.307576	29.84162
2805	11.58245	3.4306713	12.9283	12.8569	6.306515	29.83346
2806	11.59133	3.4307989	12.7213	12.6510	6.305536	29.82762
2807	11.60296	3.4309010	12.5203	12.4512	6.304280	29.81933
2808	11.61542	3.4310222	12.3132	12.2452	6.302932	29.81057
2809	11.62665	3.4312009	12.1182	12.0513	6.301690	29.80335
2810	11.63595	3.4312710	11.9266	11.8607	6.300691	29.79663
2811	11.64397	3.4313987	11.7257	11.6610	6.299804	29.79150
2812	11.65258	3.4316605	11.5249	11.4612	6.298805	29.78719
2813	11.66154	3.4312386	11.3147	11.2523	6.298029	29.77603
2814	11.66827	3.4314302	11.1106	11.0493	6.297251	29.77255
2815	11.67735	3.4317687	10.9007	10.8405	6.296174	29.76861
2816	11.69077	3.4319921	10.7027	10.6436	6.294690	29.76009
2817	11.70888	3.4324967	10.4926	10.4347	6.292610	29.75051
2818	11.73305	3.4331802	10.2915	10.2347	6.289835	29.73782
2819	11.76175	3.4338446	10.0907	10.0351	6.286599	29.72133
2820	11.79230	3.4341382	9.8806	9.8261	6.283313	29.69983
2821	11.81940	3.4347834	9.6736	9.6203	6.280254	29.68448
2822	11.84670	3.4358955	9.4695	9.4173	6.277002	29.67345
2823	11.87797	3.4369244	9.2625	9.2114	6.273373	29.65849
2824	11.90932	3.4382093	9.0617	9.0117	6.269643	29.64591
2825	11.94164	3.4385606	8.8605	8.8117	6.266166	29.62366
2826	11.96608	3.4392702	8.6474	8.5997	6.263372	29.61112
2827	11.98645	3.4399735	8.4466	8.4000	6.261002	29.60175
2828	12.00566	3.4406256	8.2395	8.1941	6.258773	29.59282
2829	12.02369	3.4412331	8.0323	7.9881	6.256683	29.58441
2830	12.04215	3.4427491	7.8344	7.7913	6.254212	29.58431
2831	12.06789	3.4435805	7.6273	7.5853	6.251247	29.57193
2832	12.09680	3.4444505	7.4266	7.3856	6.247945	29.55743
2833	12.12555	3.4445397	7.2073	7.1676	6.244952	29.53565
2834	12.15052	3.4457105	7.0031	6.9645	6.241947	29.52715
2835	12.18110	3.4463694	6.7962	6.7587	6.238560	29.50938
2836	12.21419	3.4465610	6.5892	6.5529	6.235090	29.48521
2837	12.25035	3.4472967	6.3912	6.3560	6.231108	29.46382
2838	12.29387	3.4477570	6.1843	6.1502	6.226477	29.43408
2839	12.33572	3.4489217	5.9834	5.9504	6.221765	29.41236
2840	12.38197	3.4502530	5.7761	5.7443	6.216547	29.38881
2841	12.44078	3.4520840	5.5692	5.5385	6.209873	29.36020
2842	12.50711	3.4532810	5.3589	5.3294	6.202676	29.31983
2843	12.57069	3.4539528	5.1672	5.1388	6.195963	29.27676
2844	12.63094	3.4540098	4.9602	4.9329	6.189820	29.23061
2845	12.69214	3.4546753	4.7533	4.7271	6.183370	29.18955
2846	12.76461	3.4552767	4.5581	4.5331	6.175814	29.13930
2847	12.84991	3.4551155	4.3574	4.3334	6.167247	29.07222
2848	12.95780	3.4529104	4.1532	4.1304	6.157148	28.96909
2849	13.08549	3.4523004	3.9461	3.9244	6.144512	28.86621
2850	13.21779	3.4501789	3.7207	3.7002	6.131980	28.74645
2851	13.37438	3.4456637	3.5199	3.5005	6.117885	28.58715
2852	13.53449	3.4406773	3.3098	3.2916	6.103633	28.42205
2853	13.67018	3.4352976	3.1058	3.0887	6.091975	28.27255
2854	13.78298	3.4284330	2.9018	2.8858	6.083113	28.12725
2855	13.88250	3.4227484	2.6918	2.6770	6.075170	28.00307
2856	13.97225	3.4029161	2.4877	2.4740	6.072987	27.75869
2857	14.09264	3.3703578	2.2777	2.2652	6.072002	27.37922
2858	14.26871	3.3358533	2.0736	2.0622	6.066017	26.94622
2859	14.46692	3.2417589	1.8664	1.8561	6.077409	25.97384
2860	14.71560	3.1164012	1.6626	1.6535	6.093403	24.70841
2861	15.04187	2.9953365	1.4616	1.4536	6.099166	23.45549
2862	15.38217	2.9608481	1.2636	1.2566	6.075064	22.95871
2863	15.63176	2.9225964	1.0628	1.0569	6.061405	22.48985
2864	15.82357	2.8510355	0.8555	0.8508	6.063902	21.77892
2865	16.01453	2.8072066	0.6515	0.6479	6.057648	21.30846
2866	16.18135	2.7926340	0.4505	0.4481	6.044829	21.09855
2867	16.30386	2.7493754	0.2618	0.2603	6.045284	20.67617
2868	16.42039	2.6963864	0.1187	0.1181	6.049180	20.18002
2869	16.53993	2.1895027	0.0942	0.0937	6.188642	16.01602
2870	16.61914	0.4337244	0.1004	0.0998	6.693356	2.79434
2871	16.63900	0.2967107	0.1034	0.1028	6.728221	1.86689
2872	16.62769	0.2644786	0.0973	0.0967	6.738513	1.65360
2873	16.59841	1.3860022	0.0972	0.0967	6.421121	9.72626
2874	16.55511	2.6573429	0.0973	0.0967	6.046854	19.79286
2875	16.39938	2.7128767	0.0941	0.0936	6.046395	20.32629
2876	16.23769	1.8893063	0.0941	0.0936	6.313705	13.73890
2877	16.12616	0.4722314	0.0970	0.0965	6.750809	3.09668
2878	16.04331	0.4276796	0.1031	0.1025	6.775165	2.79239
2879	15.98676	0.3821404	0.0941	0.0936	6.796146	2.48092
2880	15.93399	0.3606237	0.0968	0.0963	6.809762	2.33593
2881	15.88777	0.4080223	0.0968	0.0963	6.802762	2.66639
2882	15.84594	0.4286415	0.0969	0.0964	6.802742	2.81285
2883	15.80134	0.3863547	0.0969	0.0964	6.821278	2.52159
2884	15.74485	0.3447628	0.0968	0.0962	6.841308	2.23759
2885	15.67457	0.3205282	0.0997	0.0992	6.858365	2.07484
2886	15.60625	0.3094459	0.0999	0.0993	6.871412	2.00233
2887	15.54055	0.3039321	0.0967	0.0962	6.882519	1.96780
2888	15.47159	0.2851945	0.0966	0.0960	6.897945	1.84281
2889	15.42708	0.2827665	0.0997	0.0992	6.905141	1.82825
2890	15.39906	0.2792412	0.0934	0.0929	6.910254	1.80542
2891	15.37652	0.2650315	0.0963	0.0958	6.917652	1.70940
2892	15.35354	0.2604587	0.0965	0.0959	6.922341	1.67921
2893	15.32960	0.2538601	0.0964	0.0959	6.927759	1.63528
2894	15.30665	0.2431809	0.0993	0.0988	6.934211	1.56363
2895	15.28540	0.2257662	0.1021	0.1016	6.942347	1.44649
2896	15.26383	0.2183407	0.0962	0.0957	6.947663	1.39713
2897	15.24235	0.2133664	0.0931	0.0926	6.952269	1.36434
2898	15.22107	0.2129473	0.0930	0.0925	6.955544	1.36224
2899	15.20071	0.2106634	0.0960	0.0955	6.959220	1.34754
2900	15.17901	0.2025684	0.1020	0.1014	6.964765	1.29376
2901	15.15764	0.2057952	0.0990	0.0985	6.967018	1.31618
2902	15.13616	0.2225478	0.0959	0.0954	6.965389	1.43010
2903	15.11353	0.2231043	0.0899	0.0895	6.968594	1.43468
2904	15.09201	0.2260924	0.0957	0.0952	6.970931	1.45574
2905	15.06902	0.2401184	0.0958	0.0953	6.970279	1.55207
2906	15.04553	0.2496019	0.0957	0.0951	6.971007	1.61781
2907	15.01840	0.2422202	0.0924	0.0919	6.977202	1.56841
2908	14.98794	0.2213811	0.0926	0.0920	6.987821	1.42749
2909	14.95501	0.2047709	0.0926	0.0920	6.997577	1.31595
2910	14.91647	0.1877445	0.0955	0.0950	7.008298	1.20220
2911	14.86914	0.1712728	0.0893	0.0888	7.020188	1.09287
2912	14.84252	0.1728655	0.0955	0.0949	7.023748	1.10428
2913	14.83024	0.1712728	0.0891	0.0887	7.026064	1.09393
2914	14.82845	0.1685787	0.0952	0.0947	7.027113	1.07591
2915	14.83005	0.1559020	0.0952	0.0947	7.030525	0.99109
2916	14.83306	0.1460958	0.0952	0.0946	7.032884	0.92574
2917	14.83657	0.1401525	0.0891	0.0886	7.034051	0.88622
2918	14.84079	0.1739866	0.0949	0.0944	7.023685	1.11186
2919	14.84681	0.1991510	0.0979	0.0974	7.015472	1.28143
2920	14.85109	0.2084460	0.0918	0.0913	7.012116	1.34435
2921	14.85295	0.2122750	0.0857	0.0852	7.010718	1.37032
2922	14.85109	0.2064190	0.0886	0.0881	7.012707	1.33058
2923	14.84668	0.2006103	0.0978	0.0972	7.015066	1.29132
2924	14.84130	0.1947714	0.0915	0.0910	7.017577	1.25196
