Scan Count	Temperature [ITS-90, deg C]	Conductivity [S/m]	Pressure, Strain Gauge [db]	Depth [salt water, m]	Oxygen Saturation, Weiss [ml/l]	Salinity, Practical [PSU]
1	16.99462	0.0001204	0.0378	0.0376	6.753596	0.00872
2	16.99428	0.0001204	0.0318	0.0316	6.753644	0.00872
3	16.99394	0.0001265	0.0379	0.0377	6.753692	0.00873
4	16.99388	0.0001265	0.0348	0.0346	6.753702	0.00873
5	16.99367	0.0001265	0.0348	0.0346	6.753731	0.00873
6	16.99354	0.0001204	0.0379	0.0377	6.753750	0.00872
7	16.99306	0.0001265	0.0379	0.0377	6.753817	0.00873
8	16.99279	0.0001204	0.0348	0.0346	6.753857	0.00872
9	16.99251	0.0001265	0.0317	0.0316	6.753895	0.00873
10	16.99217	0.0001204	0.0409	0.0407	6.753943	0.00872
11	16.99245	0.0001204	0.0348	0.0346	6.753905	0.00872
12	16.99258	0.0001173	0.0348	0.0346	6.753886	0.00871
13	16.99279	0.0001204	0.0378	0.0376	6.753857	0.00872
14	16.99272	0.0001173	0.0378	0.0376	6.753866	0.00871
15	16.99299	0.0001111	0.0408	0.0406	6.753828	0.00870
16	16.99299	0.0001204	0.0348	0.0346	6.753828	0.00872
17	16.99265	0.0001173	0.0379	0.0377	6.753876	0.00871
18	16.99211	0.0001204	0.0379	0.0377	6.753953	0.00872
19	16.99156	0.0001173	0.0409	0.0407	6.754030	0.00871
20	16.99109	0.0001111	0.0348	0.0346	6.754098	0.00870
21	16.99006	0.0001111	0.0378	0.0376	6.754243	0.00870
22	16.98979	0.0001173	0.0287	0.0285	6.754281	0.00871
23	16.98911	0.0001204	0.0347	0.0345	6.754377	0.00872
24	16.98864	0.0001111	0.0317	0.0315	6.754445	0.00870
25	16.98775	0.0001111	0.0348	0.0346	6.754571	0.00870
26	16.98721	0.0001204	0.0348	0.0346	6.754647	0.00871
27	16.98707	0.0001265	0.0347	0.0345	6.754666	0.00873
28	16.98700	0.0001111	0.0408	0.0406	6.754677	0.00870
29	16.98666	0.0001204	0.0348	0.0346	6.754724	0.00871
30	16.98653	0.0001173	0.0378	0.0376	6.754744	0.00871
31	16.98619	0.0001204	0.0409	0.0407	6.754792	0.00871
32	16.98551	0.0001173	0.0347	0.0345	6.754888	0.00871
33	16.98489	0.0001204	0.0408	0.0406	6.754975	0.00871
34	16.98428	0.0001204	0.0347	0.0345	6.755062	0.00871
35	16.98414	0.0001173	0.0378	0.0376	6.755081	0.00871
36	16.98408	0.0001111	0.0409	0.0407	6.755091	0.00870
37	16.98408	0.0001173	0.0317	0.0316	6.755091	0.00871
38	16.98408	0.0001204	0.0377	0.0375	6.755091	0.00871
39	16.98428	0.0001204	0.0378	0.0376	6.755062	0.00871
40	16.98414	0.0001173	0.0378	0.0376	6.755081	0.00871
41	16.98340	0.0001204	0.0378	0.0376	6.755187	0.00871
42	16.98258	0.0001173	0.0378	0.0376	6.755303	0.00871
43	16.98122	0.0001111	0.0348	0.0346	6.755496	0.00870
44	16.97693	0.0001204	0.0347	0.0345	6.756103	0.00871
45	16.96455	0.0001111	0.0439	0.0437	6.757859	0.00869
46	16.94688	0.0001204	0.0439	0.0437	6.760365	0.00870
47	16.92636	0.0001173	0.0347	0.0345	6.763278	0.00868
48	16.90768	0.0001111	0.0408	0.0406	6.765932	0.00866
49	16.88631	0.0001111	0.0439	0.0436	6.768971	0.00865
50	16.86081	0.0001265	0.0378	0.0376	6.772598	0.00867
51	16.83139	0.0001204	0.0439	0.0436	6.776788	0.00865
52	16.79788	0.0001204	0.0408	0.0406	6.781567	0.00863
53	16.76386	0.0001173	0.0436	0.0434	6.786425	0.00861
54	16.72899	0.0001111	0.0410	0.0407	6.791410	0.00858
55	16.69889	0.0001111	0.0348	0.0346	6.795720	0.00857
56	16.67562	0.0001111	0.0347	0.0345	6.799054	0.00856
57	16.65438	0.0001204	0.0377	0.0375	6.802098	0.00857
58	16.64118	0.0001173	0.0378	0.0376	6.803993	0.00856
59	16.64057	0.0001204	0.0439	0.0436	6.804080	0.00856
60	16.64481	0.0001173	0.0348	0.0346	6.803471	0.00856
61	16.65054	0.0001204	0.0378	0.0376	6.802649	0.00857
62	16.65586	0.0001204	0.0409	0.0407	6.801886	0.00857
63	16.66105	0.0001173	0.0318	0.0316	6.801141	0.00857
64	16.66651	0.0001265	0.0348	0.0346	6.800358	0.00859
65	16.67299	0.0001111	0.0408	0.0406	6.799431	0.00856
66	16.68000	0.0001111	0.0379	0.0377	6.798426	0.00856
67	16.68749	0.0001111	0.0378	0.0376	6.797353	0.00857
68	16.69464	0.0001173	0.0348	0.0346	6.796328	0.00858
69	16.70098	0.0001204	0.0408	0.0406	6.795419	0.00859
70	16.70773	0.0001173	0.0378	0.0376	6.794453	0.00859
71	16.71394	0.0001204	0.0404	0.0402	6.793564	0.00859
72	16.71907	0.0001204	0.0379	0.0377	6.792830	0.00860
73	16.72366	0.0001265	0.0379	0.0377	6.792172	0.00861
74	16.72704	0.0001204	0.0378	0.0376	6.791690	0.00860
75	16.72974	0.0001265	0.0347	0.0345	6.791303	0.00861
76	16.73318	0.0001204	0.0379	0.0377	6.790810	0.00860
77	16.73609	0.0001111	0.0408	0.0406	6.790396	0.00859
78	16.73967	0.0001173	0.0439	0.0437	6.789883	0.00860
79	16.74325	0.0001204	0.0379	0.0377	6.789371	0.00861
80	16.74730	0.0001265	0.0408	0.0406	6.788791	0.00862
81	16.75115	0.0001111	0.0348	0.0346	6.788241	0.00859
82	16.75480	0.0001111	0.0378	0.0376	6.787720	0.00860
83	16.75845	0.0001173	0.0379	0.0377	6.787198	0.00861
84	16.76210	0.0001265	0.0378	0.0376	6.786675	0.00863
85	16.76555	0.0001204	0.0408	0.0406	6.786183	0.00862
86	16.76880	0.0001111	0.0409	0.0407	6.785720	0.00860
87	16.77218	0.0001204	0.0318	0.0316	6.785237	0.00862
88	16.77508	0.0001173	0.0379	0.0377	6.784822	0.00862
89	16.77833	0.0001204	0.0348	0.0346	6.784358	0.00862
90	16.78137	0.0001204	0.0379	0.0377	6.783923	0.00862
91	16.78455	0.0001173	0.0379	0.0377	6.783470	0.00862
92	16.78753	0.0001204	0.0348	0.0346	6.783045	0.00863
93	16.78990	0.0001173	0.0378	0.0376	6.782707	0.00862
94	16.79260	0.0001204	0.0379	0.0377	6.782320	0.00863
95	16.79477	0.0001204	0.0379	0.0377	6.782011	0.00863
96	16.79754	0.0001173	0.0349	0.0347	6.781616	0.00863
97	16.80032	0.0001265	0.0409	0.0407	6.781219	0.00864
98	16.80336	0.0001111	0.0379	0.0377	6.780786	0.00862
99	16.80594	0.0001111	0.0409	0.0407	6.780419	0.00862
100	16.80878	0.0001111	0.0379	0.0377	6.780013	0.00862
101	16.81081	0.0001173	0.0348	0.0346	6.779723	0.00863
102	16.81250	0.0001204	0.0380	0.0378	6.779481	0.00864
103	16.81358	0.0001111	0.0409	0.0407	6.779328	0.00862
104	16.81514	0.0001173	0.0440	0.0438	6.779105	0.00863
105	16.81683	0.0001204	0.0379	0.0377	6.778864	0.00864
106	16.81846	0.0001265	0.0408	0.0406	6.778631	0.00865
107	16.82022	0.0001111	0.0379	0.0377	6.778382	0.00863
108	16.82178	0.0001204	0.0348	0.0346	6.778159	0.00864
109	16.82313	0.0001173	0.0410	0.0408	6.777966	0.00864
110	16.82415	0.0001265	0.0379	0.0377	6.777820	0.00865
111	16.82523	0.0001173	0.0379	0.0377	6.777667	0.00864
112	16.82591	0.0001204	0.0317	0.0316	6.777570	0.00864
113	16.82733	0.0001204	0.0348	0.0346	6.777367	0.00864
114	16.82916	0.0001111	0.0319	0.0317	6.777107	0.00863
115	16.83160	0.0001265	0.0349	0.0347	6.776759	0.00866
116	16.83458	0.0001265	0.0379	0.0377	6.776334	0.00866
117	16.83729	0.0001204	0.0409	0.0407	6.775948	0.00865
118	16.84007	0.0001111	0.0409	0.0407	6.775553	0.00863
119	16.84156	0.0001111	0.0409	0.0407	6.775341	0.00863
120	16.84264	0.0001204	0.0379	0.0377	6.775186	0.00865
121	16.84325	0.0001265	0.0379	0.0377	6.775098	0.00866
122	16.84359	0.0001204	0.0379	0.0377	6.775050	0.00865
123	16.84406	0.0001204	0.0379	0.0377	6.774983	0.00865
124	16.84515	0.0001111	0.0379	0.0377	6.774829	0.00864
125	16.84583	0.0001204	0.0380	0.0378	6.774732	0.00865
126	16.84684	0.0001204	0.0379	0.0377	6.774587	0.00865
127	16.84738	0.0001173	0.0379	0.0377	6.774510	0.00865
128	16.84833	0.0001204	0.0409	0.0407	6.774375	0.00865
129	16.84881	0.0001173	0.0349	0.0347	6.774307	0.00865
130	16.84915	0.0001204	0.0349	0.0347	6.774259	0.00865
131	16.84962	0.0001265	0.0379	0.0377	6.774191	0.00867
132	16.85010	0.0001173	0.0380	0.0378	6.774124	0.00865
133	16.85023	0.0001204	0.0348	0.0346	6.774104	0.00865
134	16.85030	0.0001265	0.0349	0.0347	6.774094	0.00867
135	16.85057	0.0001204	0.0410	0.0407	6.774056	0.00865
136	16.85037	0.0001265	0.0380	0.0378	6.774085	0.00867
137	16.84942	0.0001111	0.0410	0.0407	6.774221	0.00864
138	16.84908	0.0001265	0.0379	0.0377	6.774268	0.00867
139	16.84827	0.0001111	0.0409	0.0407	6.774385	0.00864
140	16.84840	0.0001204	0.0410	0.0407	6.774365	0.00865
141	16.84860	0.0001204	0.0410	0.0408	6.774336	0.00865
142	16.84860	0.0001173	0.0379	0.0377	6.774336	0.00865
143	16.84867	0.0001265	0.0349	0.0347	6.774326	0.00867
144	16.84888	0.0001111	0.0410	0.0408	6.774298	0.00864
145	16.84921	0.0001204	0.0349	0.0347	6.774249	0.00865
146	16.84915	0.0001204	0.0440	0.0437	6.774259	0.00865
147	16.84738	0.0001173	0.0379	0.0377	6.774510	0.00865
148	16.84596	0.0001204	0.0349	0.0347	6.774713	0.00865
149	16.84576	0.0001173	0.0348	0.0346	6.774742	0.00865
150	16.84596	0.0001204	0.0409	0.0407	6.774713	0.00865
151	16.84596	0.0001204	0.0410	0.0408	6.774713	0.00865
152	16.84657	0.0001173	0.0441	0.0439	6.774626	0.00865
153	16.84610	0.0001265	0.0411	0.0408	6.774693	0.00866
154	16.82950	0.5426682	0.0715	0.0711	6.634390	3.52970
155	15.65505	1.3533023	0.1538	0.1529	6.549514	9.70377
156	13.64853	2.9860331	0.2513	0.2499	6.249029	24.22983
157	12.31136	2.9193921	0.3762	0.3741	6.419679	24.48116
158	11.62368	2.8660473	0.4920	0.4893	6.518088	24.43412
159	11.19753	2.9039183	0.6321	0.6287	6.552662	25.07681
160	10.84739	2.9448297	0.7662	0.7620	6.577071	25.70986
161	10.55110	2.9727636	0.9064	0.9014	6.600261	26.18996
162	10.31944	2.9905806	1.0344	1.0287	6.619982	26.53119
163	10.16087	3.0038207	1.1562	1.1498	6.633038	26.77738
164	10.07812	2.9721090	1.2354	1.2287	6.655905	26.52606
165	10.09907	2.9733064	1.2446	1.2377	6.652941	26.52251
166	10.30905	2.9914174	1.2507	1.2439	6.620855	26.54689
167	10.49531	2.9967950	1.2538	1.2469	6.596986	26.46392
168	10.59018	3.0020436	1.2568	1.2499	6.583868	26.44627
169	10.58563	3.0114286	1.2598	1.2529	6.580596	26.54082
170	10.48890	3.0195964	1.2568	1.2499	6.588454	26.69090
171	10.37764	3.0242045	1.2507	1.2439	6.599442	26.81759
172	10.28781	3.0255326	1.2507	1.2439	6.609306	26.89689
173	10.20997	3.0245470	1.2476	1.2408	6.618750	26.94487
174	10.14416	3.0283170	1.2477	1.2408	6.624845	27.03091
175	10.09250	3.0299378	1.2477	1.2409	6.630187	27.08544
176	10.05662	3.0358983	1.2507	1.2438	6.631887	27.17116
177	10.03625	3.0400574	1.2538	1.2469	6.632527	27.22756
178	10.02223	3.0400575	1.2538	1.2469	6.634159	27.23811
179	10.00329	3.0369780	1.2416	1.2347	6.637651	27.22189
180	9.98356	3.0363197	1.2386	1.2318	6.640225	27.23022
181	9.96441	3.0375272	1.2476	1.2408	6.641955	27.25659
182	9.94801	3.0371432	1.2447	1.2378	6.644029	27.26515
183	9.93928	3.0363140	1.2477	1.2409	6.645395	27.26351
184	9.93676	3.0355947	1.2477	1.2408	6.645990	27.25828
185	9.93805	3.0349363	1.2538	1.2469	6.646115	27.25078
186	9.93922	3.0341073	1.2477	1.2408	6.646325	27.24168
187	9.93816	3.0331565	1.2477	1.2408	6.646847	27.23306
188	9.93542	3.0318342	1.2417	1.2349	6.647721	27.22202
189	9.93201	3.0306278	1.2477	1.2409	6.648625	27.21262
190	9.92848	3.0305608	1.2507	1.2438	6.649065	27.21461
191	9.92323	3.0324376	1.2569	1.2500	6.648894	27.23718
192	9.92043	3.0357473	1.2690	1.2620	6.647834	27.27210
193	9.92132	3.0384484	1.2660	1.2590	6.646598	27.29822
194	9.92188	3.0386313	1.2691	1.2621	6.646456	27.29961
195	9.92043	3.0364057	1.2538	1.2469	6.647558	27.27864
196	9.91556	3.0331080	1.2538	1.2469	6.649509	27.24960
197	9.90841	3.0312007	1.2385	1.2317	6.651145	27.23608
198	9.89997	3.0302869	1.2385	1.2317	6.652515	27.23338
199	9.89080	3.0301956	1.2355	1.2287	6.653626	27.23938
200	9.87661	3.0309878	1.2416	1.2348	6.654955	27.25795
201	9.85154	3.0333280	1.2386	1.2318	6.656906	27.30013
202	9.82949	3.0367785	1.2417	1.2348	6.658035	27.35112
203	9.81627	3.0410966	1.2448	1.2379	6.657764	27.40409
204	9.80897	3.0454169	1.2508	1.2440	6.656798	27.45264
205	9.80440	3.0486282	1.2569	1.2500	6.655979	27.48809
206	9.79720	3.0489824	1.2508	1.2439	6.656670	27.49710
207	9.78728	3.0466929	1.2538	1.2469	6.658796	27.48186
208	9.77497	3.0458445	1.2477	1.2409	6.660594	27.48279
209	9.76260	3.0457104	1.2477	1.2408	6.662098	27.49088
210	9.75453	3.0465162	1.2476	1.2408	6.662703	27.50507
211	9.74957	3.0488302	1.2508	1.2439	6.662305	27.53193
212	9.74690	3.0526781	1.2599	1.2530	6.660991	27.57234
213	9.74974	3.0564667	1.2599	1.2530	6.659058	27.60796
214	9.75436	3.0597434	1.2660	1.2591	6.657134	27.63710
215	9.75614	3.0619510	1.2661	1.2591	6.655993	27.65776
216	9.75397	3.0624159	1.2569	1.2500	6.656050	27.66407
217	9.74612	3.0602632	1.2570	1.2500	6.657876	27.64861
218	9.73365	3.0588203	1.2538	1.2469	6.659942	27.64378
219	9.72147	3.0597131	1.2478	1.2409	6.660988	27.66205
220	9.71201	3.0619514	1.2417	1.2348	6.661146	27.69167
221	9.70739	3.0648327	1.2417	1.2349	6.660465	27.72400
222	9.70706	3.0679108	1.2448	1.2379	6.659200	27.75501
223	9.70856	3.0706166	1.2416	1.2348	6.657879	27.78090
224	9.71090	3.0740828	1.2447	1.2379	6.656139	27.81373
225	9.71702	3.0797507	1.2478	1.2409	6.653027	27.86565
226	9.73098	3.0853427	1.2478	1.2409	6.649037	27.91073
227	9.74991	3.0891770	1.2509	1.2440	6.645217	27.93438
228	9.76901	3.0922581	1.2539	1.2470	6.641700	27.95034
229	9.78611	3.0955614	1.2539	1.2470	6.638323	27.97006
230	9.80094	3.0995173	1.2600	1.2530	6.634939	27.99804
231	9.81482	3.1029957	1.2570	1.2501	6.631868	28.02198
232	9.82827	3.1052888	1.2508	1.2440	6.629350	28.03441
233	9.84026	3.1072381	1.2478	1.2410	6.627145	28.04454
234	9.85126	3.1105475	1.2478	1.2410	6.624485	28.06900
235	9.86181	3.1142399	1.2539	1.2470	6.621718	28.09760
236	9.87320	3.1175583	1.2570	1.2501	6.619013	28.12182
237	9.88477	3.1202558	1.2662	1.2592	6.616551	28.13969
238	9.89572	3.1225599	1.2570	1.2500	6.614326	28.15412
239	9.90634	3.1247969	1.2509	1.2440	6.612168	28.16814
240	9.91668	3.1270899	1.2601	1.2531	6.610021	28.18291
241	9.92692	3.1297351	1.2540	1.2471	6.607739	28.20128
242	9.93727	3.1321960	1.2539	1.2470	6.605524	28.21771
243	9.94739	3.1341147	1.2509	1.2441	6.603561	28.22890
244	9.95713	3.1356636	1.2417	1.2349	6.601798	28.23672
245	9.96671	3.1370645	1.2478	1.2410	6.600118	28.24319
246	9.97656	3.1390584	1.2479	1.2410	6.598158	28.25533
247	9.98625	3.1412443	1.2449	1.2380	6.596139	28.26951
248	9.99656	3.1435172	1.2509	1.2441	6.594014	28.28406
249	10.00693	3.1458525	1.2509	1.2441	6.591857	28.29918
250	10.01685	3.1472923	1.2480	1.2411	6.590125	28.30573
251	10.02375	3.1476136	1.2479	1.2410	6.589205	28.30354
252	10.02992	3.1476754	1.2480	1.2411	6.588476	28.29933
253	10.03614	3.1478854	1.2540	1.2471	6.587678	28.29654
254	10.04147	3.1511247	1.2510	1.2441	6.585724	28.32457
255	10.04938	3.1547302	1.2571	1.2502	6.583326	28.35420
256	10.05774	3.1566171	1.2663	1.2593	6.581591	28.36640
257	10.06307	3.1572791	1.2601	1.2532	6.580709	28.36880
258	10.06796	3.1571243	1.2633	1.2563	6.580218	28.36344
259	10.07453	3.1568582	1.2603	1.2533	6.579581	28.35565
260	10.08183	3.1572356	1.2511	1.2442	6.578594	28.35369
261	10.09036	3.1584484	1.2541	1.2472	6.577121	28.35905
262	10.10020	3.1607631	1.2541	1.2472	6.575045	28.37433
263	10.11127	3.1633820	1.2512	1.2443	6.572703	28.39165
264	10.12279	3.1655804	1.2572	1.2503	6.570486	28.40444
265	10.13308	3.1670546	1.2542	1.2473	6.568710	28.41100
266	10.14157	3.1673643	1.2420	1.2352	6.567619	28.40742
267	10.14877	3.1656731	1.2390	1.2322	6.567502	28.38502
268	10.15378	3.1620874	1.2360	1.2292	6.568415	28.34556
269	10.15541	3.1595617	1.2360	1.2292	6.569273	28.31925
270	10.15783	3.1618088	1.2451	1.2383	6.568071	28.33963
271	10.16526	3.1689626	1.2482	1.2413	6.564276	28.40472
272	10.17697	3.1733694	1.2481	1.2413	6.561133	28.43922
273	10.18389	3.1724952	1.2512	1.2444	6.560710	28.42513
274	10.18744	3.1688384	1.2513	1.2444	6.561816	28.38613
275	10.19014	3.1663664	1.2483	1.2414	6.562529	28.35953
276	10.19178	3.1675620	1.2483	1.2414	6.561851	28.37009
277	10.19673	3.1705301	1.2513	1.2444	6.560067	28.39561
278	10.20766	3.1738836	1.2544	1.2475	6.557450	28.42026
279	10.22051	3.1758182	1.2484	1.2415	6.555202	28.42936
280	10.23167	3.1747329	1.2423	1.2355	6.554388	28.40988
281	10.24098	3.1707714	1.2484	1.2415	6.554966	28.36342
282	10.24363	3.1688998	1.2513	1.2445	6.555436	28.34284
283	10.24137	3.1740321	1.2453	1.2385	6.553581	28.39537
284	10.24662	3.1786960	1.2515	1.2446	6.551073	28.43740
285	10.25671	3.1777281	1.2484	1.2416	6.550331	28.41992
286	10.26484	3.1728849	1.2515	1.2446	6.551403	28.36568
287	10.26653	3.1716761	1.2576	1.2507	6.551708	28.35241
288	10.26557	3.1743667	1.2515	1.2446	6.550712	28.37976
289	10.27110	3.1762084	1.2485	1.2417	6.549332	28.39365
290	10.28358	3.1772688	1.2516	1.2447	6.547490	28.39438
291	10.29860	3.1787575	1.2547	1.2478	6.545187	28.39736
292	10.31447	3.1791171	1.2516	1.2447	6.543252	28.38851
293	10.32956	3.1767846	1.2486	1.2417	6.542507	28.35372
294	10.33872	3.1753022	1.2547	1.2478	6.542082	28.33195
295	10.33962	3.1776404	1.2456	1.2388	6.541024	28.35432
296	10.34239	3.1806928	1.2517	1.2448	6.539464	28.38228
297	10.35297	3.1803018	1.2517	1.2448	6.538434	28.37017
298	10.36541	3.1780248	1.2486	1.2418	6.537964	28.33802
299	10.37158	3.1763934	1.2456	1.2388	6.537936	28.31713
300	10.37101	3.1759097	1.2487	1.2418	6.538197	28.31280
301	10.36954	3.1772679	1.2518	1.2449	6.537808	28.32734
302	10.37226	3.1802644	1.2427	1.2358	6.536280	28.35477
303	10.38233	3.1813626	1.2518	1.2449	6.534699	28.35775
304	10.39654	3.1796933	1.2488	1.2420	6.533783	28.33023
305	10.40776	3.1785144	1.2549	1.2480	6.533003	28.30990
306	10.41353	3.1808472	1.2610	1.2541	6.531404	28.32838
307	10.42033	3.1829634	1.2580	1.2511	6.529778	28.34393
308	10.43235	3.1824482	1.2580	1.2511	6.528640	28.32951
309	10.44487	3.1819888	1.2550	1.2481	6.527421	28.31525
310	10.45468	3.1821748	1.2490	1.2421	6.526244	28.30947
311	10.46240	3.1805427	1.2520	1.2451	6.526042	28.28742
312	10.46665	3.1774530	1.2459	1.2391	6.526820	28.25374
313	10.46296	3.1776329	1.2459	1.2391	6.527161	28.25837
314	10.45837	3.1827831	1.2521	1.2452	6.525584	28.31259
315	10.46450	3.1857876	1.2460	1.2391	6.523676	28.33738
316	10.47777	3.1841671	1.2521	1.2452	6.522846	28.31113
317	10.49020	3.1798412	1.2521	1.2452	6.523208	28.25897
318	10.49327	3.1787803	1.2582	1.2513	6.523295	28.24616
319	10.49066	3.1821186	1.2522	1.2453	6.522233	28.28099
320	10.49605	3.1853030	1.2553	1.2484	6.520338	28.30811
321	10.51030	3.1846634	1.2553	1.2484	6.519001	28.29076
322	10.52541	3.1816032	1.2583	1.2514	6.518548	28.24900
323	10.53359	3.1783456	1.2492	1.2424	6.518950	28.21069
324	10.52842	3.1774214	1.2553	1.2484	6.519904	28.20562
325	10.51859	3.1807220	1.2524	1.2455	6.519669	28.24563
326	10.51962	3.1848185	1.2554	1.2485	6.517895	28.28506
327	10.53416	3.1837568	1.2493	1.2425	6.516696	28.26337
328	10.54888	3.1780849	1.2493	1.2424	6.517343	28.19632
329	10.54678	3.1741840	1.2464	1.2395	6.519156	28.15968
330	10.52808	3.1755297	1.2555	1.2486	6.520708	28.18731
331	10.51712	3.1792701	1.2525	1.2456	6.520422	28.23251
332	10.52615	3.1818452	1.2556	1.2487	6.518367	28.25080
333	10.54473	3.1816030	1.2586	1.2517	6.516385	28.23404
334	10.56162	3.1785997	1.2617	1.2548	6.515708	28.19153
335	10.56890	3.1755107	1.2556	1.2487	6.516141	28.15562
336	10.56299	3.1751201	1.2556	1.2487	6.516962	28.15636
337	10.55332	3.1761682	1.2496	1.2428	6.517621	28.17409
338	10.55082	3.1757280	1.2496	1.2428	6.518079	28.17171
339	10.55201	3.1750272	1.2527	1.2458	6.518229	28.16391
340	10.55195	3.1773591	1.2589	1.2519	6.517292	28.18683
341	10.55639	3.1807837	1.2588	1.2519	6.515411	28.21699
342	10.56981	3.1814475	1.2527	1.2458	6.513641	28.21313
343	10.58586	3.1784071	1.2467	1.2398	6.513073	28.17094
344	10.59525	3.1733030	1.2560	1.2491	6.514082	28.11369
345	10.58847	3.1711025	1.2467	1.2399	6.515728	28.09735
346	10.57396	3.1738489	1.2498	1.2429	6.516245	28.13543
347	10.57123	3.1783266	1.2560	1.2491	6.514742	28.18143
348	10.58352	3.1799954	1.2590	1.2521	6.512693	28.18831
349	10.60020	3.1767260	1.2590	1.2521	6.512146	28.14341
350	10.61045	3.1707428	1.2499	1.2431	6.513412	28.07693
351	10.60498	3.1680782	1.2531	1.2462	6.515099	28.05504
352	10.59149	3.1698939	1.2469	1.2401	6.515878	28.08319
353	10.58779	3.1723980	1.2500	1.2431	6.515282	28.11057
354	10.59741	3.1730364	1.2562	1.2493	6.513947	28.10942
355	10.61159	3.1728503	1.2562	1.2493	6.512434	28.09669
356	10.62434	3.1738731	1.2593	1.2523	6.510594	28.09689
357	10.63631	3.1750573	1.2624	1.2554	6.508779	28.09929
358	10.64850	3.1745735	1.2593	1.2524	6.507609	28.08518
359	10.65956	3.1730048	1.2594	1.2524	6.507004	28.06135
360	10.66692	3.1717959	1.2503	1.2434	6.506667	28.04389
361	10.67011	3.1709157	1.2534	1.2465	6.506664	28.03284
362	10.67023	3.1701720	1.2565	1.2496	6.506950	28.02548
363	10.66869	3.1709157	1.2473	1.2404	6.506823	28.03393
364	10.66823	3.1731535	1.2504	1.2435	6.505974	28.05616
365	10.67262	3.1746353	1.2565	1.2496	6.504888	28.06727
366	10.68141	3.1747282	1.2505	1.2436	6.503869	28.06144
367	10.69122	3.1740275	1.2536	1.2467	6.503054	28.04707
368	10.70007	3.1716716	1.2534	1.2466	6.503011	28.01728
369	10.70424	3.1682321	1.2566	1.2497	6.503926	27.98050
370	10.70007	3.1679285	1.2567	1.2498	6.504513	27.98072
371	10.69328	3.1720684	1.2598	1.2528	6.503611	28.02635
372	10.69522	3.1750009	1.2659	1.2590	6.502217	28.05351
373	10.70618	3.1741823	1.2568	1.2499	6.501321	28.03712
374	10.71822	3.1711569	1.2568	1.2499	6.501189	27.99836
375	10.72331	3.1672654	1.2569	1.2500	6.502181	27.95649
376	10.71623	3.1642489	1.2539	1.2470	6.504182	27.93246
377	10.69767	3.1640386	1.2539	1.2470	6.506343	27.94457
378	10.67907	3.1673897	1.2539	1.2470	6.507079	27.99152
379	10.67508	3.1715231	1.2510	1.2441	6.505864	28.03497
380	10.68597	3.1722730	1.2509	1.2441	6.504345	28.03395
381	10.69858	3.1681082	1.2509	1.2440	6.504607	27.98361
382	10.69373	3.1617847	1.2479	1.2410	6.507689	27.92557
383	10.66321	3.1600084	1.2511	1.2442	6.511822	27.93152
384	10.63107	3.1629556	1.2480	1.2411	6.514239	27.98491
385	10.62138	3.1664487	1.2511	1.2442	6.513918	28.02651
386	10.63300	3.1680222	1.2602	1.2533	6.511982	28.03299
387	10.64947	3.1671484	1.2573	1.2504	6.510489	28.01182
388	10.65996	3.1643114	1.2573	1.2504	6.510455	27.97605
389	10.65774	3.1614508	1.2634	1.2565	6.511855	27.94979
390	10.64127	3.1603986	1.2603	1.2534	6.514126	27.95210
391	10.62019	3.1623117	1.2635	1.2566	6.515719	27.98694
392	10.61022	3.1660586	1.2636	1.2566	6.515326	28.03125
393	10.61831	3.1680781	1.2637	1.2567	6.513606	28.04481
394	10.63642	3.1654884	1.2544	1.2475	6.512619	28.00559
395	10.64679	3.1591049	1.2545	1.2476	6.514026	27.93523
396	10.63625	3.1542479	1.2545	1.2476	6.517165	27.89580
397	10.61500	3.1547492	1.2546	1.2477	6.519350	27.91692
398	10.60219	3.1598295	1.2576	1.2507	6.518739	27.97643
399	10.60948	3.1646712	1.2638	1.2569	6.515969	28.01824
400	10.62805	3.1660026	1.2638	1.2568	6.513351	28.01703
401	10.64679	3.1636799	1.2578	1.2508	6.512185	27.97996
402	10.65928	3.1578422	1.2578	1.2508	6.513134	27.91335
403	10.65495	3.1526149	1.2487	1.2418	6.515723	27.86558
404	10.63597	3.1521080	1.2487	1.2418	6.518059	27.87510
405	10.61990	3.1547182	1.2548	1.2479	6.518812	27.91288
406	10.61819	3.1579602	1.2580	1.2511	6.517697	27.94590
407	10.63044	3.1613025	1.2641	1.2572	6.514976	27.96922
408	10.64964	3.1625034	1.2611	1.2542	6.512339	27.96627
409	10.66795	3.1588942	1.2580	1.2511	6.511739	27.91702
410	10.67639	3.1528559	1.2580	1.2511	6.513220	27.85160
411	10.66675	3.1512111	1.2642	1.2573	6.514963	27.84288
412	10.65107	3.1541488	1.2582	1.2513	6.515541	27.88352
413	10.64793	3.1573906	1.2613	1.2544	6.514589	27.91760
414	10.65917	3.1578732	1.2582	1.2513	6.513135	27.91374
415	10.67348	3.1564004	1.2583	1.2514	6.512122	27.88843
416	10.68261	3.1544392	1.2644	1.2575	6.511886	27.86233
417	10.68363	3.1526146	1.2583	1.2514	6.512504	27.84373
418	10.67747	3.1527074	1.2585	1.2515	6.513158	27.84933
419	10.67074	3.1546558	1.2614	1.2545	6.513130	27.87348
420	10.67051	3.1553177	1.2584	1.2515	6.512889	27.88012
421	10.67610	3.1539321	1.2586	1.2517	6.512819	27.86233
422	10.68038	3.1525837	1.2617	1.2547	6.512881	27.84590
423	10.68004	3.1522869	1.2616	1.2547	6.513039	27.84327
424	10.67787	3.1524663	1.2647	1.2578	6.513210	27.84667
425	10.67656	3.1533012	1.2618	1.2549	6.513022	27.85582
426	10.67833	3.1544764	1.2679	1.2610	6.512351	27.86595
427	10.68380	3.1539691	1.2588	1.2518	6.511941	27.85683
428	10.69020	3.1502463	1.2527	1.2458	6.512719	27.81562
429	10.69020	3.1448569	1.2528	1.2459	6.514884	27.76303
430	10.68135	3.1459568	1.2649	1.2580	6.515436	27.78047
431	10.67399	3.1504876	1.2620	1.2551	6.514441	27.83030
432	10.67605	3.1521385	1.2620	1.2551	6.513547	27.84486
433	10.68529	3.1526455	1.2651	1.2582	6.512306	27.84277
434	10.69624	3.1532144	1.2621	1.2551	6.510849	27.83999
435	10.70709	3.1523485	1.2713	1.2643	6.509980	27.82329
436	10.71554	3.1489602	1.2652	1.2582	6.510392	27.78382
437	10.71663	3.1482679	1.2652	1.2583	6.510548	27.77625
438	10.71400	3.1522556	1.2654	1.2584	6.509243	27.81713
439	10.71771	3.1534863	1.2624	1.2554	6.508333	27.82632
440	10.72845	3.1482368	1.2562	1.2493	6.509234	27.76698
441	10.73205	3.1382790	1.2532	1.2464	6.512821	27.66721
442	10.71920	3.1381001	1.2685	1.2615	6.514338	27.67517
443	10.70589	3.1463830	1.2625	1.2555	6.512509	27.76601
444	10.70932	3.1502894	1.2565	1.2496	6.510556	27.80151
445	10.72388	3.1487747	1.2565	1.2496	6.509531	27.77569
446	10.73639	3.1432996	1.2595	1.2526	6.510322	27.71284
447	10.73742	3.1356556	1.2626	1.2557	6.513270	27.63759
448	10.72485	3.1344215	1.2626	1.2557	6.515177	27.63505
449	10.70966	3.1458144	1.2627	1.2558	6.512314	27.75760
450	10.71120	3.1521938	1.2658	1.2589	6.509581	27.81866
451	10.73113	3.1472479	1.2628	1.2559	6.509329	27.75530
452	10.74565	3.1329096	1.2538	1.2469	6.513445	27.60464
453	10.73182	3.1225330	1.2598	1.2529	6.519160	27.51401
454	10.70469	3.1256517	1.2629	1.2560	6.520966	27.56479
455	10.69402	3.1344650	1.2599	1.2530	6.518629	27.65876
456	10.70441	3.1407491	1.2690	1.2621	6.514937	27.71218
457	10.72017	3.1456907	1.2691	1.2621	6.511184	27.74843
458	10.73342	3.1465001	1.2631	1.2562	6.509372	27.74628
459	10.74330	3.1385197	1.2572	1.2502	6.511461	27.66105
460	10.74616	3.1248068	1.2571	1.2502	6.516633	27.52537
461	10.73565	3.1179067	1.2571	1.2501	6.520584	27.46610
462	10.71748	3.1249119	1.2572	1.2502	6.519822	27.54796
463	10.71171	3.1356435	1.2664	1.2594	6.516164	27.65688
464	10.71937	3.1406378	1.2633	1.2564	6.513300	27.69978
465	10.72885	3.1405204	1.2665	1.2595	6.512283	27.69146
466	10.73559	3.1383716	1.2604	1.2535	6.512387	27.66543
467	10.73999	3.1344892	1.2543	1.2474	6.513448	27.62429
468	10.74136	3.1276610	1.2605	1.2536	6.516030	27.55676
469	10.73725	3.1219722	1.2576	1.2506	6.518773	27.50447
470	10.72771	3.1251768	1.2575	1.2506	6.518563	27.54285
471	10.72102	3.1340698	1.2606	1.2537	6.515749	27.63451
472	10.72394	3.1396250	1.2576	1.2507	6.513193	27.68645
473	10.73325	3.1386062	1.2607	1.2537	6.512556	27.66948
474	10.74479	3.1323729	1.2637	1.2568	6.513756	27.60006
475	10.75147	3.1260272	1.2578	1.2509	6.515546	27.53325
476	10.74925	3.1230997	1.2578	1.2509	6.516970	27.50644
477	10.74256	3.1249116	1.2639	1.2570	6.516997	27.52909
478	10.73942	3.1285058	1.2549	1.2480	6.515910	27.56645
479	10.74393	3.1302078	1.2580	1.2510	6.514720	27.57963
480	10.75422	3.1281788	1.2579	1.2510	6.514375	27.55213
481	10.76371	3.1243444	1.2641	1.2571	6.514843	27.50769
482	10.76685	3.1213619	1.2611	1.2542	6.515682	27.47631
483	10.76445	3.1206966	1.2642	1.2573	6.516219	27.47164
484	10.76045	3.1225943	1.2642	1.2573	6.515910	27.49310
485	10.76034	3.1243136	1.2704	1.2634	6.515235	27.50992
486	10.76485	3.1233953	1.2613	1.2544	6.515094	27.49759
487	10.77034	3.1214358	1.2613	1.2544	6.515260	27.47442
488	10.77320	3.1187686	1.2583	1.2514	6.516005	27.44634
489	10.77223	3.1157574	1.2675	1.2606	6.517320	27.41778
490	10.76737	3.1154188	1.2584	1.2514	6.518003	27.41813
491	10.76239	3.1184977	1.2616	1.2546	6.517332	27.45180
492	10.76199	3.1242828	1.2646	1.2577	6.515061	27.50837
493	10.77006	3.1292023	1.2647	1.2577	6.512184	27.55018
494	10.78510	3.1301396	1.2676	1.2607	6.510119	27.54799
495	10.79992	3.1261562	1.2617	1.2548	6.510045	27.49813
496	10.80776	3.1183248	1.2618	1.2548	6.512291	27.41616
497	10.80387	3.1122547	1.2557	1.2488	6.515154	27.36011
498	10.79076	3.1124333	1.2557	1.2488	6.516560	27.37163
499	10.77932	3.1162622	1.2558	1.2489	6.516318	27.41739
500	10.77652	3.1179679	1.2619	1.2550	6.515952	27.43607
501	10.77949	3.1174013	1.2680	1.2611	6.515844	27.42833
502	10.78287	3.1190025	1.2650	1.2580	6.514823	27.44137
503	10.78618	3.1242764	1.2712	1.2642	6.512341	27.49015
504	10.79305	3.1292514	1.2651	1.2582	6.509580	27.53337
505	10.80318	3.1288011	1.2651	1.2582	6.508621	27.52139
506	10.81148	3.1209857	1.2683	1.2613	6.510810	27.43922
507	10.81142	3.1111900	1.2683	1.2613	6.514728	27.34413
508	10.79889	3.1110978	1.2653	1.2583	6.516178	27.35258
509	10.78550	3.1229761	1.2623	1.2554	6.512938	27.47803
510	10.78590	3.1305836	1.2563	1.2494	6.509851	27.55171
511	10.79402	3.1252070	1.2593	1.2524	6.511087	27.49333
512	10.79660	3.1090922	1.2563	1.2494	6.517238	27.33481
513	10.78418	3.0978486	1.2564	1.2495	6.523136	27.23485
514	10.76188	3.1014803	1.2626	1.2556	6.524204	27.28673
515	10.74907	3.1159793	1.2748	1.2678	6.519842	27.43727
516	10.75399	3.1284440	1.2657	1.2588	6.514295	27.55488
517	10.76359	3.1288632	1.2658	1.2588	6.513047	27.55174
518	10.77154	3.1179679	1.2628	1.2558	6.516513	27.43979
519	10.77652	3.1012466	1.2659	1.2590	6.522643	27.27355
520	10.77760	3.0920454	1.2689	1.2620	6.526202	27.18338
521	10.77640	3.1011851	1.2629	1.2559	6.522680	27.27304
522	10.79151	3.1159481	1.2690	1.2620	6.515071	27.40522
523	10.82253	3.1224766	1.2629	1.2560	6.508971	27.44544
524	10.84699	3.1163354	1.2691	1.2621	6.508670	27.36754
525	10.85421	3.1043685	1.2722	1.2652	6.512626	27.24610
526	10.84957	3.0986527	1.2662	1.2592	6.515428	27.19413
527	10.84315	3.1060472	1.2662	1.2592	6.513204	27.27060
528	10.84384	3.1182628	1.2663	1.2593	6.508256	27.38860
529	10.85805	3.1217676	1.2633	1.2564	6.505261	27.41200
530	10.88139	3.1127524	1.2633	1.2564	6.506227	27.30718
531	10.89441	3.0980625	1.2603	1.2534	6.510605	27.15521
532	10.88936	3.0905894	1.2665	1.2596	6.514147	27.08659
533	10.87600	3.0992423	1.2664	1.2595	6.512212	27.18026
534	10.87468	3.1158302	1.2665	1.2596	6.505757	27.34201
535	10.88930	3.1216379	1.2635	1.2566	6.501802	27.38741
536	10.90468	3.1126660	1.2637	1.2567	6.503642	27.28902
537	10.90812	3.0995062	1.2636	1.2567	6.508485	27.15905
538	10.90020	3.0963855	1.2667	1.2598	6.510618	27.13469
539	10.89102	3.1041037	1.2606	1.2537	6.508583	27.21622
540	10.89229	3.1125799	1.2608	1.2538	6.505070	27.29740
541	10.90296	3.1116075	1.2578	1.2509	6.504256	27.28005
542	10.91059	3.1012145	1.2578	1.2509	6.507528	27.17376
543	10.90680	3.0915407	1.2700	1.2630	6.511800	27.08293
544	10.89274	3.0944940	1.2701	1.2631	6.512212	27.12189
545	10.88173	3.1086792	1.2671	1.2601	6.507809	27.26744
546	10.88460	3.1190939	1.2641	1.2572	6.503343	27.36625
547	10.89481	3.1151651	1.2672	1.2603	6.503758	27.32057
548	10.90124	3.1026897	1.2611	1.2542	6.507995	27.19496
549	10.89779	3.0919521	1.2642	1.2573	6.512653	27.09356
550	10.88850	3.0895031	1.2643	1.2574	6.514677	27.07671
551	10.87846	3.0960970	1.2613	1.2543	6.513186	27.14797
552	10.87634	3.1060776	1.2613	1.2544	6.509452	27.24624
553	10.88299	3.1127893	1.2645	1.2575	6.506032	27.30634
554	10.89074	3.1121061	1.2584	1.2515	6.505432	27.29396
555	10.89579	3.1031323	1.2584	1.2515	6.508433	27.20329
556	10.89470	3.0901229	1.2554	1.2485	6.513730	27.07815
557	10.88626	3.0829270	1.2463	1.2395	6.517546	27.01472
558	10.87290	3.0881655	1.2494	1.2425	6.516972	27.07527
559	10.86441	3.0994636	1.2587	1.2518	6.513430	27.19099
560	10.86579	3.1071109	1.2588	1.2518	6.510229	27.26409
561	10.86986	3.1090607	1.2680	1.2610	6.508994	27.27996
562	10.87290	3.1069878	1.2679	1.2610	6.509477	27.25761
563	10.87428	3.1013931	1.2650	1.2580	6.511549	27.20238
564	10.87319	3.0945065	1.2650	1.2580	6.514414	27.13647
565	10.86877	3.0923575	1.2650	1.2581	6.515769	27.11892
566	10.86373	3.0961217	1.2651	1.2581	6.514839	27.15911
567	10.86143	3.0988861	1.2621	1.2552	6.513996	27.18760
568	10.86264	3.0962323	1.2592	1.2523	6.514918	27.16099
569	10.86390	3.0929531	1.2561	1.2492	6.516082	27.12829
570	10.86281	3.0933153	1.2592	1.2523	6.516060	27.13260
571	10.86115	3.0966561	1.2623	1.2554	6.514917	27.16620
572	10.86097	3.0990950	1.2593	1.2524	6.513965	27.18997
573	10.86281	3.0987448	1.2593	1.2524	6.513897	27.18521
574	10.86482	3.0979153	1.2655	1.2585	6.514001	27.17569
575	10.86631	3.0985665	1.2625	1.2555	6.513574	27.18089
576	10.86734	3.0993038	1.2595	1.2526	6.513164	27.18728
577	10.86848	3.0993284	1.2565	1.2496	6.513024	27.18667
578	10.86969	3.0978600	1.2566	1.2497	6.513473	27.17155
579	10.87026	3.0948688	1.2628	1.2558	6.514600	27.14214
580	10.86957	3.0910991	1.2566	1.2497	6.516179	27.10614
581	10.86654	3.0890799	1.2628	1.2559	6.517327	27.08882
582	10.86218	3.0911483	1.2629	1.2560	6.516995	27.11207
583	10.85857	3.0967114	1.2629	1.2560	6.515186	27.16865
584	10.85822	3.1016575	1.2630	1.2561	6.513254	27.21684
585	10.86092	3.1030958	1.2630	1.2560	6.512377	27.22878
586	10.86482	3.1001272	1.2631	1.2561	6.513120	27.19712
587	10.86757	3.0933460	1.2601	1.2532	6.515511	27.12938
588	10.86648	3.0869385	1.2602	1.2533	6.518186	27.06812
589	10.86097	3.0863251	1.2663	1.2593	6.519053	27.06624
590	10.85410	3.0933768	1.2754	1.2684	6.517020	27.13964
591	10.85215	3.1029545	1.2725	1.2655	6.513422	27.23392
592	10.85593	3.1056043	1.2634	1.2564	6.511940	27.25681
593	10.86132	3.0988369	1.2604	1.2535	6.514029	27.18721
594	10.86355	3.0880491	1.2605	1.2536	6.518075	27.08104
595	10.85908	3.0803216	1.2606	1.2536	6.521660	27.00949
596	10.84957	3.0808182	1.2606	1.2536	6.522539	27.02131
597	10.84080	3.0884911	1.2667	1.2597	6.520471	27.10211
598	10.84006	3.0980323	1.2638	1.2568	6.516749	27.19516
599	10.84516	3.1038398	1.2699	1.2629	6.513858	27.24770
600	10.85106	3.1004776	1.2669	1.2599	6.514533	27.21072
601	10.85507	3.0914246	1.2608	1.2539	6.517688	27.12000
602	10.85427	3.0862638	1.2640	1.2571	6.519836	27.07059
603	10.85043	3.0873497	1.2579	1.2510	6.519837	27.08395
604	10.84785	3.0900313	1.2610	1.2541	6.519060	27.11184
605	10.84808	3.0908661	1.2610	1.2541	6.518701	27.11976
606	10.85008	3.0910441	1.2612	1.2542	6.518403	27.12000
607	10.85209	3.0921367	1.2612	1.2542	6.517741	27.12911
608	10.85387	3.0920998	1.2643	1.2574	6.517555	27.12743
609	10.85564	3.0913325	1.2704	1.2634	6.517660	27.11868
610	10.85656	3.0918358	1.2613	1.2544	6.517356	27.12289
611	10.85719	3.0943592	1.2643	1.2574	6.516279	27.14687
612	10.85839	3.0960788	1.2705	1.2635	6.515458	27.16264
613	10.86029	3.0945066	1.2675	1.2606	6.515871	27.14601
614	10.86201	3.0907493	1.2678	1.2608	6.517174	27.10833
615	10.86212	3.0871226	1.2676	1.2606	6.518606	27.07312
616	10.85994	3.0846260	1.2769	1.2698	6.519847	27.05054
617	10.85627	3.0850615	1.2678	1.2608	6.520089	27.05747
618	10.85255	3.0891967	1.2678	1.2608	6.518861	27.10028
619	10.85083	3.0941874	1.2710	1.2640	6.517066	27.14991
620	10.85198	3.0957042	1.2711	1.2641	6.516332	27.16376
621	10.85450	3.0938619	1.2711	1.2641	6.516782	27.14404
622	10.85616	3.0920139	1.2711	1.2641	6.517330	27.12490
623	10.85679	3.0916455	1.2682	1.2612	6.517406	27.12087
624	10.85668	3.0884296	1.2621	1.2551	6.518701	27.08980
625	10.85553	3.0814374	1.2591	1.2522	6.521618	27.02291
626	10.85106	3.0768712	1.2683	1.2614	6.523945	26.98198
627	10.84275	3.0796230	1.2684	1.2614	6.523788	27.01475
628	10.83582	3.0880800	1.2623	1.2553	6.521199	27.10181
629	10.83519	3.0953911	1.2714	1.2645	6.518353	27.17316
630	10.83805	3.0960360	1.2624	1.2555	6.517772	27.17729
631	10.84115	3.0903751	1.2656	1.2586	6.519681	27.12012
632	10.84178	3.0820200	1.2565	1.2496	6.522942	27.03869
633	10.83754	3.0762341	1.2626	1.2557	6.525731	26.98575
634	10.82992	3.0767182	1.2626	1.2557	6.526402	26.99605
635	10.82299	3.0816707	1.2657	1.2588	6.525210	27.04915
636	10.82133	3.0864114	1.2749	1.2679	6.523505	27.09634
637	10.82385	3.0883440	1.2719	1.2649	6.522448	27.11322
638	10.82723	3.0877611	1.2720	1.2650	6.522298	27.10507
639	10.82980	3.0855157	1.2751	1.2681	6.522903	27.08139
640	10.83061	3.0835101	1.2720	1.2651	6.523613	27.06136
641	10.82986	3.0832464	1.2692	1.2622	6.523802	27.05936
642	10.82866	3.0848349	1.2662	1.2592	6.523304	27.07564
643	10.82814	3.0860003	1.2632	1.2563	6.522898	27.08732
644	10.82866	3.0843381	1.2694	1.2624	6.523503	27.07083
645	10.82906	3.0811434	1.2632	1.2563	6.524733	27.03957
646	10.82791	3.0795925	1.2633	1.2564	6.525482	27.02538
647	10.82585	3.0806346	1.2695	1.2625	6.525299	27.03700
648	10.82385	3.0831913	1.2664	1.2594	6.524505	27.06326
649	10.82316	3.0854544	1.2666	1.2596	6.523680	27.08571
650	10.82431	3.0861782	1.2605	1.2536	6.523261	27.09188
651	10.82620	3.0840376	1.2606	1.2536	6.523902	27.06973
652	10.82723	3.0797089	1.2666	1.2597	6.525513	27.02701
653	10.82631	3.0762955	1.2637	1.2568	6.526980	26.99461
654	10.82310	3.0766448	1.2669	1.2599	6.527204	27.00035
655	10.81932	3.0803894	1.2669	1.2599	6.526137	27.03943
656	10.81772	3.0836881	1.2669	1.2599	6.525001	27.07260
657	10.81864	3.0845896	1.2670	1.2600	6.524537	27.08066
658	10.82076	3.0840990	1.2671	1.2601	6.524493	27.07434
659	10.82236	3.0823390	1.2731	1.2661	6.525015	27.05609
660	10.82305	3.0805733	1.2732	1.2662	6.525642	27.03847
661	10.82253	3.0808798	1.2733	1.2663	6.525578	27.04182
662	10.82161	3.0834734	1.2734	1.2664	6.524646	27.06764
663	10.82156	3.0860617	1.2642	1.2573	6.523619	27.09278
664	10.82293	3.0860862	1.2674	1.2604	6.523453	27.09200
665	10.82482	3.0833814	1.2675	1.2605	6.524319	27.06438
666	10.82562	3.0787467	1.2674	1.2605	6.526079	27.01887
667	10.82408	3.0735143	1.2676	1.2606	6.528344	26.96930
668	10.81972	3.0712178	1.2646	1.2577	6.529755	26.95025
669	10.81291	3.0734348	1.2647	1.2577	6.529643	26.97674
670	10.80782	3.0785078	1.2708	1.2638	6.528193	27.02967
671	10.80650	3.0834797	1.2678	1.2608	6.526355	27.07886
672	10.80856	3.0858226	1.2679	1.2609	6.525186	27.10006
673	10.81171	3.0837250	1.2649	1.2580	6.525667	27.07739
674	10.81371	3.0768777	1.2711	1.2642	6.528176	27.00952
675	10.81222	3.0692710	1.2650	1.2581	6.531385	26.93689
676	10.80535	3.0658926	1.2682	1.2612	6.533516	26.90919
677	10.79534	3.0687202	1.2651	1.2582	6.533523	26.94396
678	10.78824	3.0765838	1.2743	1.2673	6.531183	27.02544
679	10.78790	3.0847433	1.2682	1.2612	6.527958	27.10486
680	10.79111	3.0857308	1.2683	1.2614	6.527200	27.11208
681	10.79408	3.0788328	1.2714	1.2644	6.529621	27.04295
682	10.79397	3.0687202	1.2654	1.2585	6.533679	26.94497
683	10.78916	3.0620263	1.2684	1.2615	6.536904	26.88359
684	10.78121	3.0645283	1.2655	1.2586	6.536807	26.91369
685	10.77532	3.0736740	1.2656	1.2586	6.533816	27.00674
686	10.77537	3.0715122	1.2747	1.2677	6.534675	26.98572
687	10.77006	3.0073860	1.3297	1.3223	6.560975	26.36828
688	10.67513	2.9875105	1.4364	1.4285	6.579915	26.24395
689	10.50508	2.9930345	1.5765	1.5679	6.597387	26.42009
690	10.36637	2.9907683	1.7259	1.7164	6.614444	26.49859
691	10.26072	2.9904844	1.8937	1.8833	6.626891	26.57281
692	10.18367	2.9948632	2.0918	2.0803	6.634094	26.67218
693	10.13690	2.9967139	2.2868	2.2742	6.638802	26.72471
694	10.10879	2.9987226	2.5002	2.4864	6.641263	26.76513
695	10.07863	3.0004890	2.7167	2.7017	6.644066	26.80475
696	10.03541	3.0074908	2.9453	2.9291	6.646217	26.90577
697	9.90550	3.0364125	3.1738	3.1563	6.649330	27.28926
698	9.72208	3.0490937	3.4024	3.3837	6.665447	27.55475
699	9.54894	3.0597461	3.6250	3.6051	6.681217	27.79444
700	9.40117	3.0688451	3.8627	3.8414	6.694676	28.00073
701	9.27194	3.0763670	4.0974	4.0749	6.706637	28.17800
702	9.11645	3.0867055	4.3381	4.3143	6.720468	28.40595
703	8.94996	3.0927953	4.5882	4.5629	6.737467	28.60116
704	8.80797	3.0988218	4.8443	4.8176	6.751619	28.77743
705	8.69076	3.1027131	5.0971	5.0690	6.763799	28.91271
706	8.58578	3.1072827	5.3410	5.3116	6.774235	29.04572
707	8.49370	3.1108209	5.5879	5.5572	6.783609	29.15808
708	8.41312	3.1131049	5.8439	5.8118	6.792186	29.24837
709	8.33851	3.1148539	6.0968	6.0632	6.800304	29.32848
710	8.27106	3.1203230	6.3468	6.3118	6.805876	29.44169
711	8.20014	3.1230347	6.6152	6.5787	6.813121	29.52939
712	8.12726	3.1257104	6.8742	6.8363	6.820623	29.61868
713	8.06421	3.1275852	7.1453	7.1059	6.827319	29.69153
714	8.01043	3.1305273	7.4076	7.3668	6.832415	29.76797
715	7.96646	3.1327362	7.6514	7.6092	6.836674	29.82855
716	7.93423	3.1337547	7.9166	7.8729	6.840077	29.86666
717	7.90765	3.1344646	8.1757	8.1306	6.842944	29.89675
718	7.87998	3.1366991	8.4256	8.3791	6.845234	29.94391
719	7.84994	3.1366378	8.6846	8.6367	6.848880	29.96891
720	7.82433	3.1374776	8.9407	8.8913	6.851574	29.99967
721	7.79210	3.1389411	9.2089	9.1581	6.854773	30.04276
722	7.74414	3.1408188	9.4741	9.4218	6.859674	30.10390
723	7.68111	3.1434322	9.7331	9.6794	6.866046	30.18604
724	7.61249	3.1450702	9.9922	9.9371	6.873558	30.26294
725	7.54735	3.1468938	10.2453	10.1888	6.880567	30.33903
726	7.49183	3.1484520	10.5226	10.4645	6.886545	30.40408
727	7.45000	3.1485143	10.7908	10.7312	6.891584	30.44131
728	7.41975	3.1494420	11.0620	11.0009	6.894809	30.47768
729	7.39414	3.1500111	11.3302	11.2677	6.897646	30.50618
730	7.37217	3.1501350	11.5924	11.5284	6.900255	30.52674
731	7.35094	3.1510627	11.8607	11.7952	6.902391	30.55529
732	7.32794	3.1518731	12.1258	12.0588	6.904797	30.58417
733	7.29836	3.1523558	12.3665	12.2982	6.908160	30.61540
734	7.26707	3.1524737	12.6409	12.5711	6.911908	30.64424
735	7.23628	3.1527771	12.9060	12.8347	6.915509	30.67469
736	7.20530	3.1527157	13.1773	13.1045	6.919311	30.70141
737	7.17780	3.1531366	13.4577	13.3834	6.922461	30.73028
738	7.15625	3.1533163	13.7473	13.6713	6.925002	30.75127
739	7.14118	3.1536443	14.0063	13.9289	6.926684	30.76812
740	7.13174	3.1534033	14.2745	14.1955	6.927955	30.77381
741	7.12450	3.1536570	14.5427	14.4623	6.928720	30.78289
742	7.11965	3.1538922	14.8202	14.7382	6.929202	30.78963
743	7.11533	3.1532429	15.0853	15.0019	6.930050	30.78636
744	7.11064	3.1529276	15.3658	15.2808	6.930780	30.78701
745	7.10595	3.1528659	15.6432	15.5567	6.931388	30.79040
746	7.10194	3.1527485	15.9052	15.8173	6.931939	30.79260
747	7.09803	3.1529589	16.1855	16.0960	6.932319	30.79823
748	7.09460	3.1535589	16.4630	16.3719	6.932452	30.80766
749	7.08840	3.1544003	16.7464	16.6538	6.932804	30.82217
750	7.07835	3.1544871	16.9994	16.9053	6.933992	30.83197
751	7.06836	3.1546976	17.2798	17.1842	6.935114	30.84306
752	7.05722	3.1544256	17.5694	17.4721	6.936611	30.84995
753	7.04630	3.1534671	17.8833	17.7843	6.938418	30.84922
754	7.03642	3.1544569	18.1576	18.0571	6.939147	30.86866
755	7.02815	3.1542468	18.4258	18.3238	6.940264	30.87367
756	7.02207	3.1545810	18.7002	18.5966	6.940850	30.88262
757	7.01791	3.1544017	18.9866	18.8815	6.941451	30.88427
758	7.01401	3.1543585	19.2610	19.1543	6.941954	30.88717
759	7.00559	3.1543216	19.5444	19.4361	6.943006	30.89420
760	6.99561	3.1541981	19.8187	19.7089	6.944290	30.90168
761	6.98746	3.1540374	20.0870	19.9757	6.945371	30.90714
762	6.97769	3.1539510	20.3644	20.2515	6.946612	30.91484
763	6.96975	3.1548790	20.6478	20.5333	6.947135	30.93192
764	6.96394	3.1546688	20.9282	20.8122	6.947955	30.93474
765	6.95615	3.1544896	21.2085	21.0909	6.949000	30.93966
766	6.94857	3.1548486	21.4919	21.3728	6.949757	30.95025
767	6.94261	3.1560798	21.7571	21.6365	6.949889	30.96886
768	6.94162	3.1577939	22.0407	21.9184	6.949175	30.98823
769	6.94183	3.1583200	22.3240	22.2002	6.948898	30.99363
770	6.94157	3.1588151	22.5953	22.4700	6.948692	30.99912
771	6.94006	3.1590876	22.8606	22.7337	6.948748	31.00331
772	6.93757	3.1592981	23.1439	23.0154	6.948955	31.00771
773	6.93166	3.1591188	23.4366	23.3066	6.949772	31.01096
774	6.92046	3.1590261	23.7078	23.5762	6.951193	31.01993
775	6.90812	3.1589273	23.9944	23.8611	6.952756	31.02986
776	6.89848	3.1590884	24.2777	24.1429	6.953862	31.04019
777	6.89210	3.1589710	24.5613	24.4249	6.954705	31.04454
778	6.88231	3.1586679	24.8416	24.7036	6.956059	31.04996
779	6.86584	3.1585506	25.1372	24.9976	6.958139	31.06343
780	6.84756	3.1585508	25.4208	25.2796	6.960383	31.07984
781	6.82950	3.1585202	25.7011	25.5583	6.962616	31.09572
782	6.81522	3.1585513	25.9968	25.8523	6.964357	31.10886
783	6.80338	3.1585516	26.2925	26.1463	6.965815	31.11946
784	6.79061	3.1586075	26.5972	26.4494	6.967359	31.13151
785	6.77593	3.1586387	26.8927	26.7433	6.969151	31.14504
786	6.76296	3.1579520	27.1976	27.0464	6.971088	31.14918
787	6.75082	3.1578284	27.4963	27.3434	6.972645	31.15872
788	6.73672	3.1575873	27.8072	27.6525	6.974502	31.16875
789	6.72284	3.1573215	28.1151	27.9587	6.976346	31.17833
790	6.70751	3.1564864	28.4624	28.3041	6.978651	31.18298
791	6.69137	3.1566290	28.7581	28.5982	6.980571	31.19910
792	6.67765	3.1565054	29.0598	28.8981	6.982326	31.21011
793	6.66616	3.1561777	29.3677	29.2042	6.983909	31.21685
794	6.65163	3.1559181	29.6603	29.4953	6.985833	31.22712
795	6.63659	3.1558503	29.9743	29.8075	6.987725	31.23996
796	6.62562	3.1558196	30.2913	30.1226	6.989098	31.24949
797	6.61887	3.1558754	30.6113	30.4409	6.989908	31.25611
798	6.61414	3.1557271	30.9037	30.7316	6.990571	31.25867
799	6.61059	3.1557582	31.2056	31.0318	6.991000	31.26212
800	6.60796	3.1559068	31.5165	31.3409	6.991255	31.26600
801	6.60611	3.1557893	31.8332	31.6559	6.991549	31.26626
802	6.60318	3.1555977	32.1381	31.9591	6.992013	31.26670
803	6.59705	3.1554865	32.4430	32.2622	6.992829	31.27094
804	6.58898	3.1553072	32.7568	32.5743	6.993921	31.27621
805	6.58064	3.1546764	33.0678	32.8835	6.995270	31.27676
806	6.57216	3.1542560	33.3878	33.2017	6.996534	31.27976
807	6.56403	3.1535387	33.7352	33.5471	6.997902	31.27916
808	6.55380	3.1526854	34.0522	33.8624	6.999599	31.27900
809	6.54101	3.1523702	34.3966	34.2048	7.001344	31.28710
810	6.52667	3.1516469	34.7165	34.5229	7.003484	31.29212
811	6.51301	3.1511711	35.0427	34.8472	7.005417	31.29926
812	6.50084	3.1509611	35.3779	35.1806	7.007034	31.30794
813	6.49017	3.1510478	35.7254	35.5261	7.008318	31.31852
814	6.48062	3.1505967	36.0515	35.8503	7.009732	31.32216
815	6.47154	3.1504176	36.3808	36.1778	7.010953	31.32837
816	6.46359	3.1504487	36.7128	36.5079	7.011928	31.33586
817	6.45795	3.1508383	37.0359	36.8291	7.012437	31.34517
818	6.45277	3.1508385	37.3621	37.1535	7.013085	31.34978
819	6.44349	3.1497011	37.6943	37.4838	7.014814	31.34562
820	6.42858	3.1489533	38.0204	37.8081	7.017045	31.35094
821	6.41305	3.1487001	38.3618	38.1475	7.019104	31.36226
822	6.39779	3.1460799	38.7031	38.4869	7.022326	31.34725
823	6.37383	3.1430590	39.0840	38.8656	7.026835	31.33577
824	6.34390	3.1418303	39.4223	39.2020	7.031183	31.34958
825	6.31492	3.1416577	39.7546	39.5324	7.034883	31.37421
826	6.29484	3.1415036	40.1051	39.8809	7.037468	31.39085
827	6.28283	3.1421894	40.4403	40.2142	7.038621	31.40935
828	6.27456	3.1423132	40.7878	40.5597	7.039595	31.41819
829	6.26818	3.1410596	41.1200	40.8900	7.041035	31.41006
830	6.25828	3.1397753	41.4857	41.2536	7.042930	31.40481
831	6.24527	3.1400411	41.8393	41.6052	7.044424	31.41961
832	6.23710	3.1409367	42.1958	41.9597	7.044993	31.43690
833	6.23542	3.1424932	42.5402	42.3022	7.044417	31.45554
834	6.23654	3.1416533	42.8938	42.6537	7.044713	31.44503
835	6.23486	3.1417461	43.2321	42.9901	7.044883	31.44745
836	6.23333	3.1427036	43.5764	43.3325	7.044593	31.45931
837	6.23374	3.1430866	43.9300	43.6840	7.044355	31.46301
838	6.23369	3.1429385	44.2866	44.0386	7.044445	31.46125
839	6.23190	3.1424939	44.6431	44.3931	7.044901	31.45781
840	6.22522	3.1421976	45.0028	44.7507	7.045893	31.46054
841	6.21451	3.1417160	45.3502	45.0961	7.047481	31.46495
842	6.20116	3.1415063	45.7130	45.4568	7.049261	31.47481
843	6.18689	3.1402529	46.0787	45.8204	7.051690	31.47396
844	6.16025	3.1394258	46.4231	46.1629	7.055446	31.48930
845	6.13113	3.1390867	46.7797	46.5174	7.059266	31.51238
846	6.10951	3.1387598	47.1423	46.8780	7.062145	31.52865
847	6.09406	3.1382538	47.4989	47.2325	7.064346	31.53722
848	6.07916	3.1381614	47.8525	47.5841	7.066265	31.54987
849	6.06595	3.1377727	48.1999	47.9295	7.068126	31.55767
850	6.05371	3.1377421	48.5412	48.2689	7.069683	31.56856
851	6.04411	3.1373287	48.9010	48.6266	7.071106	31.57273
852	6.03233	3.1357426	49.2697	48.9932	7.073407	31.56586
853	6.01777	3.1352677	49.6202	49.3417	7.075486	31.57397
854	6.00366	3.1348236	49.9766	49.6961	7.077492	31.58199
855	5.99098	3.1342561	50.3424	50.0597	7.079385	31.58731
856	5.97861	3.1338861	50.6868	50.4022	7.081137	31.59456
857	5.96513	3.1333928	51.0434	50.7567	7.083093	31.60147
858	5.95220	3.1328871	51.3999	51.1112	7.084987	31.60772
859	5.93903	3.1328565	51.7596	51.4688	7.086666	31.61951
860	5.92774	3.1325667	52.1283	51.8354	7.088244	31.62665
861	5.91908	3.1324374	52.4971	52.2021	7.089408	31.63313
862	5.91174	3.1321723	52.8661	52.5689	7.090477	31.63685
863	5.90632	3.1321416	53.2285	52.9293	7.091183	31.64140
864	5.90207	3.1320616	53.5973	53.2960	7.091767	31.64431
865	5.89919	3.1322344	53.9723	53.6687	7.092049	31.64876
866	5.89686	3.1318459	54.3593	54.0536	7.092552	31.64641
867	5.89463	3.1315746	54.7279	54.4201	7.092981	31.64528
868	5.89185	3.1315748	55.0967	54.7867	7.093340	31.64771
869	5.88669	3.1315194	55.4779	55.1657	7.094027	31.65174
870	5.88138	3.1314024	55.8434	55.5291	7.094764	31.65523
871	5.87683	3.1313717	56.2062	55.8898	7.095362	31.65898
872	5.87192	3.1311313	56.5597	56.2413	7.096112	31.66071
873	5.86474	3.1311623	56.8888	56.5685	7.097008	31.66763
874	5.85802	3.1311501	57.2333	56.9110	7.097869	31.67363
875	5.85185	3.1308357	57.5989	57.2745	7.098818	31.67571
876	5.84533	3.1305954	57.9494	57.6230	7.099773	31.67896
877	5.83649	3.1303982	58.3183	57.9897	7.100998	31.68487
878	5.82820	3.1303305	58.6809	58.3503	7.102086	31.69171
879	5.82088	3.1301827	59.0436	58.7108	7.103095	31.69675
880	5.81512	3.1300904	59.4338	59.0988	7.103878	31.70093
881	5.81042	3.1300042	59.7873	59.4502	7.104524	31.70421
882	5.80719	3.1302695	60.1256	59.7866	7.104801	31.71005
883	5.80376	3.1300908	60.4700	60.1290	7.105335	31.71111
884	5.80078	3.1301464	60.8298	60.4867	7.105690	31.71436
885	5.79825	3.1301836	61.1771	60.8320	7.105997	31.71698
886	5.79543	3.1300603	61.5155	61.1685	7.106425	31.71809
887	5.79204	3.1298261	61.8721	61.5230	7.106982	31.71847
888	5.78780	3.1298818	62.2044	61.8533	7.107496	31.72292
889	5.78251	3.1298573	62.5639	62.2108	7.108186	31.72745
890	5.77600	3.1299746	62.9143	62.5592	7.108954	31.73472
891	5.76918	3.1300550	63.2649	62.9077	7.109780	31.74186
892	5.76278	3.1299133	63.6032	63.2440	7.110671	31.74613
893	5.75778	3.1299443	63.9536	63.5924	7.111293	31.75101
894	5.75436	3.1300246	64.2981	63.9349	7.111692	31.75497
895	5.75173	3.1298274	64.6517	64.2864	7.112134	31.75505
896	5.75007	3.1297966	64.9929	64.6256	7.112368	31.75611
897	5.74820	3.1298584	65.3434	64.9742	7.112580	31.75839
898	5.74619	3.1297969	65.6878	65.3165	7.112874	31.75943
899	5.74467	3.1298834	66.0263	65.6531	7.113028	31.76167
900	5.74200	3.1299945	66.3644	65.9893	7.113315	31.76527
901	5.73726	3.1299761	66.7210	66.3438	7.113931	31.76935
902	5.73136	3.1299763	67.0533	66.6741	7.114684	31.77475
903	5.72567	3.1300628	67.3917	67.0106	7.115366	31.78093
904	5.72073	3.1299149	67.7268	67.3437	7.116076	31.78376
905	5.71761	3.1298657	68.0714	67.6863	7.116504	31.78598
906	5.71539	3.1296808	68.4158	68.0287	7.116889	31.78583
907	5.71413	3.1296810	68.7541	68.3650	7.117056	31.78685
908	5.71196	3.1295886	69.1106	68.7195	7.117386	31.78769
909	5.70839	3.1295887	69.4855	69.0921	7.117847	31.79088
910	5.70405	3.1295272	69.8542	69.4586	7.118435	31.79410
911	5.70003	3.1297370	70.1896	69.7921	7.118843	31.80009
912	5.69630	3.1298050	70.5279	70.1285	7.119286	31.80421
913	5.69222	3.1297682	70.8662	70.4648	7.119829	31.80748
914	5.68920	3.1299471	71.2074	70.8040	7.120125	31.81218
915	5.68708	3.1301261	71.5580	71.1525	7.120307	31.81602
916	5.68487	3.1300646	71.9054	71.4980	7.120627	31.81725
917	5.68351	3.1299783	72.2439	71.8344	7.120852	31.81740
918	5.68175	3.1298860	72.5976	72.1861	7.121131	31.81786
919	5.67958	3.1299478	72.9417	72.5282	7.121381	31.82043
920	5.67837	3.1300959	73.2861	72.8706	7.121463	31.82307
921	5.67686	3.1300097	73.6337	73.2161	7.121708	31.82336
922	5.67586	3.1300591	73.9720	73.5524	7.121817	31.82470
923	5.67394	3.1301086	74.3499	73.9282	7.122041	31.82688
924	5.67153	3.1303369	74.7125	74.2886	7.122235	31.83156
925	5.66780	3.1306023	75.0630	74.6371	7.122575	31.83790
926	5.66287	3.1308122	75.3984	74.9705	7.123097	31.84476
927	5.65784	3.1310220	75.7214	75.2916	7.123631	31.85172
928	5.65331	3.1310530	76.0598	75.6280	7.124195	31.85619
929	5.64944	3.1311888	76.3949	75.9612	7.124622	31.86122
930	5.64662	3.1312568	76.7212	76.2855	7.124950	31.86449
931	5.64486	3.1313803	77.0411	76.6036	7.125115	31.86739
932	5.64325	3.1314976	77.3581	76.9187	7.125264	31.87008
933	5.64204	3.1316458	77.6720	77.2308	7.125346	31.87274
934	5.64129	3.1317261	77.9951	77.5520	7.125407	31.87421
935	5.63978	3.1317940	78.3212	77.8762	7.125569	31.87624
936	5.63792	3.1318867	78.6444	78.1974	7.125764	31.87889
937	5.63601	3.1320349	78.9766	78.5277	7.125935	31.88221
938	5.63289	3.1323866	79.3027	78.8519	7.126152	31.88897
939	5.62826	3.1326891	79.6442	79.1914	7.126586	31.89659
940	5.62163	3.1331643	79.9945	79.5397	7.127184	31.90806
941	5.61348	3.1337630	80.3298	79.8730	7.127908	31.92237
942	5.60444	3.1341828	80.6468	80.1881	7.128839	31.93553
943	5.59660	3.1344174	80.9699	80.5093	7.129716	31.94546
944	5.59067	3.1345410	81.3051	80.8425	7.130409	31.95232
945	5.58600	3.1349855	81.6344	81.1699	7.130774	31.96161
946	5.58057	3.1355843	81.9574	81.4910	7.131152	31.97336
947	5.57454	3.1359424	82.2713	81.8031	7.131734	31.98298
948	5.56937	3.1360906	82.5913	82.1211	7.132318	31.98942
949	5.56581	3.1361463	82.9235	82.4514	7.132748	31.99327
950	5.56405	3.1362390	83.2437	82.7697	7.132929	31.99584
951	5.56269	3.1363502	83.5696	83.0937	7.133049	31.99822
952	5.56104	3.1363874	83.8867	83.4090	7.133247	32.00006
953	5.56104	3.1363258	84.2068	83.7272	7.133286	31.99921
954	5.56124	3.1363259	84.5329	84.0513	7.133268	31.99886
955	5.56139	3.1362272	84.8621	84.3786	7.133309	31.99745
956	5.56179	3.1361224	85.1822	84.6968	7.133321	31.99573
957	5.56239	3.1360916	85.5083	85.0210	7.133268	31.99465
958	5.56274	3.1360917	85.8374	85.3480	7.133231	31.99415
959	5.56315	3.1361041	86.1485	85.6573	7.133181	31.99376
960	5.56330	3.1360919	86.4409	85.9480	7.133175	31.99334
961	5.56305	3.1360611	86.7426	86.2480	7.133229	31.99308
962	5.56284	3.1361785	87.0536	86.5571	7.133200	31.99445
963	5.56199	3.1363884	87.3522	86.8539	7.133204	31.99749
964	5.56129	3.1365675	87.6266	87.1267	7.133205	32.00004
965	5.56023	3.1367034	87.9011	87.3996	7.133273	32.00245
966	5.55938	3.1366850	88.1874	87.6842	7.133397	32.00291
967	5.55858	3.1367159	88.4710	87.9661	7.133489	32.00389
968	5.55803	3.1367777	88.7544	88.2478	7.133533	32.00497
969	5.55727	3.1368396	89.0288	88.5206	7.133602	32.00626
970	5.55657	3.1368458	89.3153	88.8055	7.133694	32.00686
971	5.55662	3.1368089	89.6171	89.1054	7.133714	32.00624
972	5.55677	3.1368090	89.9127	89.3993	7.133701	32.00596
973	5.55642	3.1366609	90.2419	89.7265	7.133832	32.00446
974	5.55592	3.1367351	90.5346	90.0174	7.133863	32.00563
975	5.55592	3.1368957	90.8089	90.2902	7.133784	32.00731
976	5.55496	3.1369575	91.0862	90.5658	7.133879	32.00879
977	5.55431	3.1369576	91.3667	90.8446	7.133968	32.00927
978	5.55361	3.1370194	91.6471	91.1234	7.134030	32.01050
979	5.55291	3.1370750	91.9274	91.4021	7.134096	32.01166
980	5.55260	3.1371368	92.2231	91.6960	7.134109	32.01250
981	5.55255	3.1371987	92.5005	91.9717	7.134089	32.01312
982	5.55220	3.1373346	92.7902	92.2597	7.134068	32.01484
983	5.55160	3.1373470	93.0828	92.5506	7.134144	32.01542
984	5.55130	3.1373779	93.3541	92.8202	7.134172	32.01592
985	5.55040	3.1376435	93.6375	93.1020	7.134153	32.01964
986	5.54538	3.1382424	93.9240	93.3868	7.134478	32.03105
987	5.53032	3.1381501	94.2136	93.6747	7.136442	32.04420
988	5.51157	3.1381504	94.5032	93.9625	7.138826	32.06195
989	5.49773	3.1381814	94.7807	94.2383	7.140571	32.07537
990	5.48795	3.1381816	95.0641	94.5201	7.141818	32.08456
991	5.48064	3.1382435	95.3598	94.8140	7.142720	32.09211
992	5.47568	3.1382437	95.6463	95.0988	7.143356	32.09671
993	5.47227	3.1382438	95.9266	95.3775	7.143795	32.09983
994	5.46926	3.1382809	96.2163	95.6654	7.144163	32.10298
995	5.46646	3.1383613	96.4997	95.9471	7.144483	32.10643
996	5.46431	3.1384540	96.7801	96.2258	7.144713	32.10940
997	5.46270	3.1384541	97.0637	96.5078	7.144923	32.11080
998	5.46165	3.1384974	97.3531	96.7954	7.145041	32.11215
999	5.46115	3.1385099	97.6305	97.0712	7.145104	32.11264
1000	5.46090	3.1385408	97.9109	97.3499	7.145126	32.11309
1001	5.46135	3.1385718	98.1823	97.6197	7.145058	32.11288
1002	5.46170	3.1384854	98.4597	97.8954	7.145066	32.11143
1003	5.46075	3.1385658	98.7493	98.1833	7.145151	32.11311
1004	5.45880	3.1386894	99.0326	98.4649	7.145339	32.11624
1005	5.45679	3.1387512	99.3163	98.7470	7.145567	32.11871
1006	5.45504	3.1389612	99.5966	99.0256	7.145685	32.12263
1007	5.45369	3.1391960	99.8770	99.3043	7.145738	32.12645
1008	5.45269	3.1393195	100.1787	99.6042	7.145806	32.12866
1009	5.45213	3.1393196	100.4897	99.9133	7.145883	32.12903
1010	5.45148	3.1395852	100.7823	100.2041	7.145832	32.13252
1011	5.45063	3.1396965	101.0596	100.4799	7.145887	32.13446
1012	5.45018	3.1397089	101.3371	100.7556	7.145944	32.13490
1013	5.44998	3.1397090	101.6237	101.0406	7.145976	32.13495
1014	5.44983	3.1397091	101.9040	101.3192	7.146001	32.13496
1015	5.44963	3.1398265	102.1844	101.5979	7.145971	32.13635
1016	5.44943	3.1398328	102.4831	101.8947	7.146000	32.13646
1017	5.44908	3.1399193	102.7728	102.1828	7.146005	32.13764
1018	5.44833	3.1400059	103.0593	102.4675	7.146061	32.13920
1019	5.44813	3.1400121	103.3397	102.7462	7.146089	32.13932
1020	5.44783	3.1399752	103.6262	103.0310	7.146153	32.13905
1021	5.44753	3.1400061	103.9128	103.3159	7.146182	32.13955
1022	5.44728	3.1401853	104.1993	103.6007	7.146125	32.14168
1023	5.44698	3.1402965	104.4767	103.8765	7.146110	32.14309
1024	5.44678	3.1403337	104.7633	104.1613	7.146122	32.14356
1025	5.44688	3.1402782	105.0558	104.4521	7.146146	32.14270
1026	5.44713	3.1401856	105.3455	104.7400	7.146170	32.14127
1027	5.44683	3.1402042	105.6321	105.0249	7.146205	32.14163
1028	5.44658	3.1401858	105.9154	105.3065	7.146253	32.14152
1029	5.44638	3.1401241	106.2019	105.5912	7.146318	32.14087
1030	5.44628	3.1402477	106.4915	105.8792	7.146271	32.14223
1031	5.44683	3.1402663	106.7751	106.1610	7.146198	32.14177
1032	5.44718	3.1402788	107.0707	106.4548	7.146154	32.14143
1033	5.44728	3.1403344	107.3541	106.7366	7.146118	32.14183
1034	5.44728	3.1404271	107.6406	107.0213	7.146075	32.14274
1035	5.44693	3.1406063	107.9242	107.3033	7.146031	32.14497
1036	5.44643	3.1406805	108.1984	107.5758	7.146061	32.14615
1037	5.44618	3.1408473	108.4666	107.8424	7.146010	32.14815
1038	5.44583	3.1409339	108.7440	108.1181	7.146015	32.14933
1039	5.44608	3.1409648	109.0154	108.3879	7.145973	32.14931
1040	5.44648	3.1410576	109.3049	108.6757	7.145880	32.14984
1041	5.44613	3.1414158	109.5824	108.9514	7.145740	32.15410
1042	5.44553	3.1414715	109.8718	109.2391	7.145793	32.15516
1043	5.44507	3.1416198	110.1462	109.5119	7.145778	32.15714
1044	5.44412	3.1418176	110.4390	109.8029	7.145800	32.16015
1045	5.44327	3.1419227	110.7376	110.0997	7.145859	32.16201
1046	5.44272	3.1421328	111.0393	110.3996	7.145824	32.16477
1047	5.44197	3.1423120	111.3196	110.6782	7.145831	32.16738
1048	5.44127	3.1426333	111.6002	110.9571	7.145755	32.17156
1049	5.44077	3.1427260	111.8836	111.2388	7.145776	32.17295
1050	5.44057	3.1427014	112.1702	111.5236	7.145821	32.17272
1051	5.44032	3.1427571	112.4567	111.8085	7.145830	32.17345
1052	5.44017	3.1429672	112.7401	112.0902	7.145744	32.17584
1053	5.43997	3.1431093	113.0267	112.3750	7.145700	32.17750
1054	5.43977	3.1433565	113.3041	112.6508	7.145600	32.18036
1055	5.43962	3.1434184	113.5814	112.9264	7.145593	32.18107
1056	5.43962	3.1433011	113.8682	113.2114	7.145662	32.17960
1057	5.43957	3.1432703	114.1545	113.4960	7.145691	32.17916
1058	5.43947	3.1433260	114.4319	113.7717	7.145681	32.17975
1059	5.43932	3.1434496	114.7215	114.0596	7.145641	32.18116
1060	5.43922	3.1438080	115.0019	114.3382	7.145469	32.18518
1061	5.43892	3.1439008	115.2853	114.6200	7.145464	32.18638
1062	5.43882	3.1439873	115.5722	114.9051	7.145438	32.18731
1063	5.43872	3.1442407	115.8615	115.1926	7.145322	32.19014
1064	5.43872	3.1444632	116.1634	115.4927	7.145211	32.19251
1065	5.43927	3.1446240	116.4407	115.7683	7.145062	32.19367
1066	5.43937	3.1447353	116.7271	116.0530	7.144997	32.19470
1067	5.43907	3.1447971	117.0106	116.3348	7.145008	32.19555
1068	5.43922	3.1450938	117.2821	116.6046	7.144838	32.19863
1069	5.43907	3.1454522	117.5593	116.8802	7.144673	32.20271
1070	5.43887	3.1452917	117.8520	117.1711	7.144790	32.20094
1071	5.43887	3.1455451	118.1324	117.4498	7.144662	32.20367
1072	5.43882	3.1458727	118.4282	117.7438	7.144501	32.20729
1073	5.43862	3.1460520	118.7086	118.0225	7.144437	32.20937
1074	5.43872	3.1462684	118.9860	118.2983	7.144316	32.21160
1075	5.43857	3.1466207	119.2723	118.5828	7.144154	32.21559
1076	5.43842	3.1468309	119.5620	118.8708	7.144068	32.21798
1077	5.43842	3.1470102	119.8454	119.1524	7.143979	32.21987
1078	5.43847	3.1470288	120.1379	119.4432	7.143970	32.21989
1079	5.43837	3.1470413	120.4153	119.7189	7.143982	32.21999
1080	5.43812	3.1472515	120.7081	120.0098	7.143909	32.22247
1081	5.43832	3.1476410	121.0128	120.3127	7.143683	32.22655
1082	5.43867	3.1477894	121.3298	120.6278	7.143567	32.22774
1083	5.43852	3.1480058	121.6164	120.9127	7.143478	32.23020
1084	5.43832	3.1482408	121.8906	121.1852	7.143384	32.23292
1085	5.43812	3.1482409	122.1742	121.4671	7.143416	32.23297
1086	5.43827	3.1482410	122.4637	121.7548	7.143404	32.23269
1087	5.43852	3.1483276	122.7534	122.0427	7.143333	32.23329
1088	5.43852	3.1484760	123.0429	122.3304	7.143260	32.23483
1089	5.43867	3.1484205	123.3233	122.6092	7.143277	32.23392
1090	5.43887	3.1481795	123.5978	122.8820	7.143386	32.23086
1091	5.43857	3.1481178	123.8842	123.1666	7.143464	32.23031
1092	5.43812	3.1478830	124.1708	123.4515	7.143652	32.22794
1093	5.43802	3.1478212	124.4573	123.7363	7.143704	32.22720
1094	5.43792	3.1478522	124.7375	124.0148	7.143707	32.22751
1095	5.43797	3.1481799	125.0241	124.2996	7.143533	32.23103
1096	5.43797	3.1485138	125.3259	124.5996	7.143362	32.23467
1097	5.43787	3.1486313	125.6063	124.8783	7.143319	32.23596
1098	5.43782	3.1487180	125.8990	125.1691	7.143286	32.23685
1099	5.43797	3.1491693	126.1823	125.4508	7.143034	32.24168
1100	5.43822	3.1493796	126.4691	125.7358	7.142897	32.24368
1101	5.43872	3.1494971	126.7647	126.0296	7.142778	32.24439
1102	5.43912	3.1496456	127.0480	126.3111	7.142654	32.24555
1103	5.43937	3.1496209	127.3346	126.5960	7.142642	32.24489
1104	5.43957	3.1495901	127.6242	126.8839	7.142640	32.24421
1105	5.43962	3.1495902	127.9136	127.1715	7.142640	32.24402
1106	5.43962	3.1494975	128.1942	127.4504	7.142696	32.24283
1107	5.43912	3.1494111	128.4806	127.7350	7.142812	32.24219
1108	5.43887	3.1494977	128.7641	128.0168	7.142804	32.24328
1109	5.43892	3.1497389	129.0506	128.3016	7.142676	32.24582
1110	5.43977	3.1496401	129.3493	128.5984	7.142628	32.24374
1111	5.43987	3.1498009	129.6450	128.8923	7.142536	32.24532
1112	5.43967	3.1500112	129.9256	129.1712	7.142456	32.24776
1113	5.43977	3.1502771	130.2181	129.4619	7.142309	32.25054
1114	5.43992	3.1503390	130.4987	129.7408	7.142263	32.25096
1115	5.43972	3.1504442	130.7852	130.0255	7.142239	32.25220
1116	5.43967	3.1504876	131.0838	130.3222	7.142229	32.25259
1117	5.43962	3.1505804	131.4067	130.6433	7.142194	32.25354
1118	5.43967	3.1508217	131.7301	130.9646	7.142067	32.25606
1119	5.43972	3.1509887	132.0286	131.2613	7.141978	32.25776
1120	5.43952	3.1510568	132.3091	131.5400	7.141974	32.25859
1121	5.43932	3.1510012	132.5926	131.8219	7.142035	32.25801
1122	5.43937	3.1510322	132.8881	132.1155	7.142019	32.25817
1123	5.43957	3.1511807	133.1688	132.3945	7.141922	32.25953
1124	5.43967	3.1512736	133.4553	132.6792	7.141866	32.26034
1125	5.43967	3.1512984	133.7296	132.9518	7.141859	32.26049
1126	5.43977	3.1513603	134.0129	133.2334	7.141820	32.26096
1127	5.44002	3.1514222	134.2995	133.5182	7.141762	32.26128
1128	5.44022	3.1515398	134.5951	133.8121	7.141681	32.26228
1129	5.44012	3.1518429	134.8816	134.0968	7.141539	32.26567
1130	5.44032	3.1524119	135.1621	134.3756	7.141218	32.27179
1131	5.44042	3.1528882	135.4515	134.6632	7.140959	32.27695
1132	5.44027	3.1534882	135.7351	134.9450	7.140665	32.28376
1133	5.43997	3.1537728	136.0156	135.2239	7.140558	32.28713
1134	5.43977	3.1538780	136.3112	135.5176	7.140535	32.28837
1135	5.43967	3.1539709	136.5825	135.7872	7.140504	32.28939
1136	5.43957	3.1540638	136.8691	136.0720	7.140474	32.29040
1137	5.43967	3.1540886	137.1554	136.3566	7.140455	32.29044
1138	5.43947	3.1541877	137.4390	136.6385	7.140434	32.29162
1139	5.43917	3.1542434	137.7225	136.9202	7.140449	32.29240
1140	5.43887	3.1542683	138.0120	137.2079	7.140480	32.29283
1141	5.43877	3.1543611	138.3015	137.4957	7.140450	32.29384
1142	5.43867	3.1544540	138.5791	137.7715	7.140420	32.29485
1143	5.43862	3.1544726	138.8624	138.0531	7.140423	32.29497
1144	5.43832	3.1545098	139.1336	138.3227	7.140447	32.29555
1145	5.43812	3.1545099	139.4173	138.6045	7.140479	32.29561
1146	5.43797	3.1546028	139.6916	138.8772	7.140455	32.29667
1147	5.43772	3.1548441	139.9720	139.1559	7.140365	32.29951
1148	5.43732	3.1550113	140.2523	139.4344	7.140333	32.30165
1149	5.43691	3.1551413	140.5296	139.7100	7.140321	32.30337
1150	5.43671	3.1553207	140.8071	139.9858	7.140257	32.30547
1151	5.43636	3.1554446	141.0875	140.2645	7.140242	32.30707
1152	5.43616	3.1554137	141.3771	140.5523	7.140291	32.30677
1153	5.43621	3.1554262	141.7001	140.8733	7.140285	32.30671
1154	5.43626	3.1553520	142.0080	141.1793	7.140325	32.30567
1155	5.43626	3.1553831	142.2855	141.4550	7.140315	32.30588
1156	5.43611	3.1556121	142.5749	141.7427	7.140219	32.30848
1157	5.43601	3.1558039	142.8615	142.0275	7.140136	32.31061
1158	5.43561	3.1560886	143.1450	142.3093	7.140042	32.31409
1159	5.43531	3.1558660	143.4193	142.5819	7.140205	32.31172
1160	5.43521	3.1562249	143.7028	142.8636	7.140033	32.31575
1161	5.43471	3.1566148	143.9833	143.1424	7.139896	32.32051
1162	5.43421	3.1565530	144.2606	143.4180	7.139999	32.32016
1163	5.43396	3.1565964	144.5320	143.6877	7.140013	32.32076
1164	5.43366	3.1569182	144.8031	143.9571	7.139887	32.32456
1165	5.43336	3.1570049	145.0683	144.2207	7.139885	32.32570
1166	5.43326	3.1570050	145.2908	144.4418	7.139902	32.32569
1167	5.43301	3.1571288	145.4371	144.5872	7.139871	32.32726
1168	5.43291	3.1572340	145.4829	144.6327	7.139829	32.32853
1169	5.43421	3.1573392	145.4408	144.5909	7.139608	32.32849
1170	5.43701	3.1575186	145.4013	144.5516	7.139157	32.32785
1171	5.43922	3.1575186	145.4075	144.5578	7.138878	32.32572
1172	5.43992	3.1575495	145.4350	144.5851	7.138774	32.32539
1173	5.43982	3.1577723	145.4473	144.5974	7.138668	32.32800
1174	5.44012	3.1579394	145.4295	144.5796	7.138541	32.32962
1175	5.43982	3.1580879	145.4144	144.5646	7.138500	32.33160
1176	5.43992	3.1580013	145.4296	144.5798	7.138533	32.33051
1177	5.43982	3.1580260	145.4420	144.5920	7.138533	32.33088
1178	5.43987	3.1582798	145.4332	144.5833	7.138392	32.33372
1179	5.44017	3.1584778	145.4333	144.5834	7.138249	32.33567
1180	5.44027	3.1583602	145.4365	144.5866	7.138299	32.33424
1181	5.43967	3.1583293	145.4367	144.5868	7.138391	32.33447
1182	5.43912	3.1585087	145.4520	144.6020	7.138366	32.33703
1183	5.43902	3.1586944	145.4370	144.5871	7.138279	32.33923
1184	5.43937	3.1586882	145.4432	144.5933	7.138238	32.33882
1185	5.43962	3.1586573	145.4432	144.5933	7.138223	32.33823
1186	5.43957	3.1586882	145.4464	144.5965	7.138213	32.33863
1187	5.43942	3.1588429	145.4437	144.5938	7.138150	32.34053
1188	5.43947	3.1589110	145.4498	144.5998	7.138108	32.34125
1189	5.43992	3.1588986	145.4440	144.5941	7.138057	32.34068
1190	5.44037	3.1589605	145.4504	144.6004	7.137967	32.34094
1191	5.44042	3.1590224	145.4595	144.6095	7.137928	32.34159
1192	5.44057	3.1591091	145.4567	144.6067	7.137863	32.34243
1193	5.44082	3.1592638	145.4600	144.6100	7.137749	32.34394
1194	5.44142	3.1593504	145.4419	144.5920	7.137627	32.34436
1195	5.44237	3.1590781	145.3688	144.5193	7.137650	32.34039
1196	5.44918	3.1592018	145.2531	144.4043	7.136720	32.33529
1197	5.45639	3.1592945	145.1225	144.2746	7.135756	32.32947
1198	5.45950	3.1593563	144.9734	144.1263	7.135327	32.32726
1199	5.46055	3.1594119	144.8061	143.9601	7.135161	32.32696
1200	5.46155	3.1594119	144.6172	143.7723	7.135030	32.32608
1201	5.46240	3.1596532	144.4316	143.5879	7.134790	32.32809
1202	5.46320	3.1595603	144.2400	143.3975	7.134734	32.32636
1203	5.46355	3.1594860	144.0573	143.2160	7.134725	32.32527
1204	5.46360	3.1595169	143.8687	143.0285	7.134698	32.32566
1205	5.46355	3.1595601	143.6830	142.8439	7.134677	32.32629
1206	5.46265	3.1595291	143.5095	142.6715	7.134803	32.32689
1207	5.46100	3.1595600	143.3148	142.4780	7.134991	32.32893
1208	5.45945	3.1595600	143.1137	142.2782	7.135183	32.33052
1209	5.45774	3.1594857	142.9158	142.0815	7.135433	32.33141
1210	5.45604	3.1594423	142.7151	141.8820	7.135667	32.33266
1211	5.45489	3.1594423	142.5081	141.6763	7.135808	32.33387
1212	5.45414	3.1594422	142.3104	141.4798	7.135898	32.33469
1213	5.45339	3.1595288	142.0942	141.2650	7.135942	32.33650
1214	5.45334	3.1595597	141.8718	141.0440	7.135927	32.33700
1215	5.45369	3.1596401	141.6437	140.8172	7.135835	32.33769
1216	5.45399	3.1597700	141.4092	140.5842	7.135722	32.33899
1217	5.45459	3.1594109	141.1839	140.3602	7.135832	32.33445
1218	5.45394	3.1590209	140.9647	140.1424	7.136116	32.33076
1219	5.45259	3.1588661	140.7516	139.9307	7.136365	32.33041
1220	5.45163	3.1588166	140.5264	139.7069	7.136506	32.33088
1221	5.45098	3.1587175	140.3102	139.4920	7.136636	32.33049
1222	5.45018	3.1585689	140.0881	139.2712	7.136811	32.32968
1223	5.44963	3.1585688	139.8659	139.0504	7.136876	32.33032
1224	5.44973	3.1585997	139.6375	138.8234	7.136841	32.33069
1225	5.44988	3.1586553	139.4214	138.6087	7.136788	32.33128
1226	5.44988	3.1588410	139.1991	138.3878	7.136684	32.33349
1227	5.45038	3.1590513	138.9679	138.1579	7.136504	32.33551
1228	5.45168	3.1591998	138.7335	137.9250	7.136255	32.33605
1229	5.45324	3.1592925	138.5141	137.7070	7.136005	32.33572
1230	5.45389	3.1593543	138.2829	137.4772	7.135884	32.33590
1231	5.45434	3.1594100	138.0608	137.2564	7.135792	32.33621
1232	5.45454	3.1594408	137.8322	137.0293	7.135746	32.33648
1233	5.45494	3.1593789	137.6072	136.8056	7.135723	32.33550
1234	5.45469	3.1592922	137.3789	136.5787	7.135795	32.33487
1235	5.45434	3.1592302	137.1444	136.3457	7.135867	32.33462
1236	5.45379	3.1592920	136.9251	136.1278	7.135899	32.33596
1237	5.45344	3.1592301	136.6939	135.8979	7.135971	32.33571
1238	5.45324	3.1591991	136.4624	135.6679	7.136007	32.33566
1239	5.45294	3.1591062	136.2280	135.4349	7.136089	32.33501
1240	5.45269	3.1589761	136.0056	135.2139	7.136185	32.33389
1241	5.45224	3.1589265	135.7713	134.9810	7.136263	32.33387
1242	5.45193	3.1588646	135.5460	134.7571	7.136328	32.33357
1243	5.45163	3.1587160	135.3087	134.5212	7.136440	32.33229
1244	5.45118	3.1586540	135.0681	134.2821	7.136524	32.33214
1245	5.45093	3.1585921	134.8305	134.0460	7.136583	32.33180
1246	5.45093	3.1584435	134.5963	133.8132	7.136657	32.33023
1247	5.45058	3.1581463	134.3557	133.5741	7.136853	32.32731
1248	5.45008	3.1579049	134.1182	133.3380	7.137040	32.32518
1249	5.44958	3.1576883	133.8716	133.0930	7.137212	32.32332
1250	5.44908	3.1574221	133.6219	132.8448	7.137411	32.32091
1251	5.44878	3.1570631	133.3845	132.6088	7.137635	32.31725
1252	5.44833	3.1568836	133.1499	132.3757	7.137781	32.31576
1253	5.44833	3.1568217	132.9188	132.1460	7.137809	32.31517
1254	5.44843	3.1567845	132.6751	131.9039	7.137811	32.31477
1255	5.44878	3.1569453	132.4407	131.6709	7.137675	32.31637
1256	5.44968	3.1568833	132.1910	131.4227	7.137589	32.31492
1257	5.45103	3.1568771	131.9596	131.1927	7.137416	32.31367
1258	5.45138	3.1568522	131.7190	130.9535	7.137379	32.31317
1259	5.45128	3.1568831	131.4696	130.7057	7.137370	32.31373
1260	5.45133	3.1567531	131.2077	130.4454	7.137426	32.31234
1261	5.45138	3.1561900	130.9641	130.2033	7.137713	32.30603
1262	5.45083	3.1558620	130.7298	129.9704	7.137952	32.30296
1263	5.45058	3.1562208	130.4861	129.7283	7.137787	32.30738
1264	5.45173	3.1562825	130.2455	129.4891	7.137603	32.30709
1265	5.45289	3.1559484	129.9960	129.2411	7.137629	32.30232
1266	5.45284	3.1558617	129.7582	129.0048	7.137676	32.30150
1267	5.45219	3.1556512	129.5115	128.7596	7.137865	32.29986
1268	5.45153	3.1555027	129.2711	128.5207	7.138021	32.29892
1269	5.45098	3.1555150	129.0338	128.2848	7.138078	32.29971
1270	5.45093	3.1555273	128.7931	128.0456	7.138073	32.30001
1271	5.45128	3.1556819	128.5437	127.7977	7.137940	32.30155
1272	5.45188	3.1557994	128.3001	127.5556	7.137796	32.30242
1273	5.45264	3.1561829	128.0625	127.3195	7.137492	32.30616
1274	5.45354	3.1562818	127.8221	127.0805	7.137320	32.30654
1275	5.45449	3.1561889	127.5816	126.8415	7.137244	32.30469
1276	5.45494	3.1555887	127.3378	126.5992	7.137500	32.29757
1277	5.45434	3.1551370	127.0942	126.3571	7.137810	32.29315
1278	5.45334	3.1549266	126.8506	126.1150	7.138043	32.29185
1279	5.45224	3.1548152	126.6162	125.8820	7.138236	32.29176
1280	5.45163	3.1547471	126.3606	125.6280	7.138343	32.29169
1281	5.45108	3.1545676	126.1201	125.3889	7.138502	32.29030
1282	5.45053	3.1543573	125.8763	125.1466	7.138678	32.28856
1283	5.45003	3.1540850	125.6299	124.9017	7.138880	32.28608
1284	5.44948	3.1537695	125.3802	124.6535	7.139112	32.28316
1285	5.44898	3.1535468	125.1335	124.4084	7.139288	32.28123
1286	5.44848	3.1535158	124.8930	124.1693	7.139362	32.28148
1287	5.44823	3.1533982	124.6373	123.9152	7.139451	32.28051
1288	5.44813	3.1534228	124.3908	123.6702	7.139444	32.28101
1289	5.44788	3.1531877	124.1378	123.4188	7.139595	32.27871
1290	5.44738	3.1527980	123.9004	123.1827	7.139860	32.27489
1291	5.44673	3.1525877	123.6567	122.9406	7.140049	32.27325
1292	5.44653	3.1524949	123.4102	122.6955	7.140118	32.27251
1293	5.44663	3.1525010	123.1603	122.4472	7.140096	32.27261
1294	5.44658	3.1524638	122.9169	122.2052	7.140117	32.27235
1295	5.44653	3.1524637	122.6673	121.9572	7.140117	32.27252
1296	5.44638	3.1522967	122.3992	121.6907	7.140219	32.27090
1297	5.44613	3.1520430	122.1403	121.4334	7.140380	32.26840
1298	5.44593	3.1518698	121.8969	121.1914	7.140491	32.26674
1299	5.44563	3.1517152	121.6380	120.9341	7.140606	32.26541
1300	5.44533	3.1517151	121.3853	120.6829	7.140638	32.26582
1301	5.44517	3.1524633	121.1142	120.4135	7.140253	32.27458
1302	5.44573	3.1515356	120.8556	120.1564	7.140671	32.26366
1303	5.44593	3.1510779	120.6118	119.9142	7.140883	32.25840
1304	5.44558	3.1510841	120.3620	119.6659	7.140918	32.25893
1305	5.44578	3.1509974	120.1095	119.4149	7.140933	32.25787
1306	5.44653	3.1510530	119.8567	119.1637	7.140803	32.25791
1307	5.44643	3.1506324	119.6040	118.9125	7.141033	32.25336
1308	5.44578	3.1504531	119.3512	118.6612	7.141205	32.25208
1309	5.44538	3.1503974	119.1047	118.4162	7.141280	32.25195
1310	5.44507	3.1503973	118.8489	118.1619	7.141312	32.25236
1311	5.44482	3.1502426	118.5870	117.9017	7.141420	32.25098
1312	5.44447	3.1502178	118.3281	117.6443	7.141471	32.25116
1313	5.44422	3.1503661	118.0723	117.3901	7.141418	32.25321
1314	5.44432	3.1503166	117.8134	117.1327	7.141426	32.25268
1315	5.44477	3.1501867	117.5577	116.8786	7.141432	32.25090
1316	5.44507	3.1501557	117.2988	116.6212	7.141405	32.25038
1317	5.44523	3.1501865	117.0400	116.3640	7.141363	32.25071
1318	5.44517	3.1501926	116.7872	116.1128	7.141361	32.25095
1319	5.44512	3.1501864	116.5315	115.8586	7.141364	32.25106
1320	5.44502	3.1501863	116.2667	115.5954	7.141371	32.25128
1321	5.44487	3.1501244	116.0168	115.3471	7.141417	32.25085
1322	5.44487	3.1501552	115.7551	115.0869	7.141395	32.25132
1323	5.44482	3.1504086	115.4932	114.8266	7.141261	32.25437
1324	5.44507	3.1501242	115.2374	114.5724	7.141374	32.25103
1325	5.44517	3.1498830	114.9756	114.3121	7.141484	32.24833
1326	5.44492	3.1497654	114.7166	114.0547	7.141572	32.24737
1327	5.44467	3.1500065	114.4395	113.7793	7.141469	32.25047
1328	5.44482	3.1500311	114.1808	113.5221	7.141431	32.25074
1329	5.44523	3.1495859	113.9189	113.2618	7.141611	32.24543
1330	5.44507	3.1493447	113.6508	112.9954	7.141752	32.24297
1331	5.44447	3.1491654	113.3827	112.7289	7.141917	32.24165
1332	5.44377	3.1488624	113.1300	112.4777	7.142161	32.23901
1333	5.44322	3.1486831	112.8590	112.2083	7.142320	32.23764
1334	5.44292	3.1485346	112.5911	111.9420	7.142431	32.23638
1335	5.44277	3.1480586	112.3201	111.6727	7.142697	32.23126
1336	5.44227	3.1477557	112.0522	111.4063	7.142915	32.22844
1337	5.44237	3.1476567	111.7871	111.1429	7.142949	32.22735
1338	5.44237	3.1475763	111.5191	110.8765	7.142986	32.22657
1339	5.44262	3.1473042	111.2481	110.6071	7.143092	32.22338
1340	5.44247	3.1471867	110.9680	110.3287	7.143168	32.22232
1341	5.44257	3.1471187	110.6847	110.0472	7.143185	32.22160
1342	5.44277	3.1467601	110.4015	109.7657	7.143343	32.21748
1343	5.44272	3.1461977	110.1183	109.4841	7.143642	32.21129
1344	5.44232	3.1461358	109.8411	109.2086	7.143719	32.21111
1345	5.44202	3.1458391	109.5673	108.9364	7.143909	32.20817
1346	5.44177	3.1456042	109.2961	108.6669	7.144059	32.20588
1347	5.44152	3.1453631	109.0188	108.3912	7.144213	32.20352
1348	5.44147	3.1451777	108.7446	108.1187	7.144312	32.20160
1349	5.44157	3.1450602	108.4677	107.8435	7.144355	32.20031
1350	5.44152	3.1447203	108.1998	107.5772	7.144536	32.19663
1351	5.44157	3.1444916	107.9194	107.2985	7.144645	32.19413
1352	5.44177	3.1442259	107.6425	107.0232	7.144754	32.19106
1353	5.44207	3.1439540	107.3682	106.7506	7.144855	32.18783
1354	5.44242	3.1438365	107.0817	106.4658	7.144866	32.18630
1355	5.44292	3.1437746	106.8018	106.1876	7.144829	32.18525
1356	5.44327	3.1435645	106.5247	105.9122	7.144890	32.18267
1357	5.44377	3.1432061	106.2415	105.6307	7.145010	32.17827
1358	5.44417	3.1430578	105.9704	105.3612	7.145032	32.17634
1359	5.44467	3.1428538	105.6840	105.0765	7.145071	32.17369
1360	5.44523	3.1426684	105.4039	104.7981	7.145093	32.17119
1361	5.44568	3.1423966	105.1178	104.5137	7.145174	32.16782
1362	5.44593	3.1422482	104.8374	104.2350	7.145214	32.16604
1363	5.44623	3.1421926	104.5604	103.9596	7.145199	32.16525
1364	5.44653	3.1420689	104.2711	103.6721	7.145220	32.16371
1365	5.44663	3.1420071	103.9908	103.3935	7.145234	32.16305
1366	5.44663	3.1418279	103.7076	103.1120	7.145323	32.16116
1367	5.44673	3.1418463	103.4244	102.8305	7.145294	32.16141
1368	5.44683	3.1416795	103.1412	102.5489	7.145363	32.15956
1369	5.44693	3.1415620	102.8548	102.2643	7.145407	32.15827
1370	5.44698	3.1415620	102.5686	101.9798	7.145394	32.15836
1371	5.44713	3.1413519	102.2946	101.7074	7.145480	32.15597
1372	5.44713	3.1411789	102.0172	101.4317	7.145566	32.15415
1373	5.44713	3.1411109	101.7462	101.1623	7.145596	32.15351
1374	5.44728	3.1411725	101.4754	100.8931	7.145538	32.15420
1375	5.44743	3.1411725	101.2042	100.6235	7.145512	32.15418
1376	5.44763	3.1410797	100.9333	100.3542	7.145530	32.15307
1377	5.44763	3.1410488	100.6590	100.0816	7.145540	32.15286
1378	5.44768	3.1409931	100.3879	99.8121	7.145557	32.15231
1379	5.44753	3.1408448	100.1079	99.5338	7.145649	32.15091
1380	5.44753	3.1407830	99.8336	99.2611	7.145675	32.15034
1381	5.44758	3.1406903	99.5443	98.9736	7.145712	32.14939
1382	5.44783	3.1406778	99.2642	98.6951	7.145680	32.14914
1383	5.44778	3.1403937	98.9840	98.4166	7.145831	32.14611
1384	5.44778	3.1402762	98.6946	98.1290	7.145887	32.14492
1385	5.44758	3.1400662	98.4085	97.8445	7.146017	32.14287
1386	5.44753	3.1399735	98.1403	97.5780	7.146067	32.14200
1387	5.44753	3.1398870	97.8722	97.3114	7.146107	32.14115
1388	5.44768	3.1397634	97.6073	97.0481	7.146147	32.13973
1389	5.44778	3.1397448	97.3425	96.7849	7.146138	32.13956
1390	5.44773	3.1396459	97.0622	96.5063	7.146191	32.13862
1391	5.44793	3.1394359	96.7942	96.2399	7.146271	32.13618
1392	5.44828	3.1392074	96.5201	95.9674	7.146342	32.13339
1393	5.44868	3.1390776	96.2307	95.6797	7.146353	32.13168
1394	5.44953	3.1389602	95.9719	95.4225	7.146301	32.12966
1395	5.45048	3.1387811	95.7099	95.1620	7.146270	32.12685
1396	5.45143	3.1386328	95.4510	94.9046	7.146222	32.12438
1397	5.45213	3.1385710	95.1923	94.6475	7.146160	32.12314
1398	5.45304	3.1385709	94.9242	94.3810	7.146039	32.12241
1399	5.45359	3.1384659	94.6592	94.1176	7.146019	32.12082
1400	5.45414	3.1386016	94.4002	93.8601	7.145871	32.12196
1401	5.45444	3.1386880	94.1474	93.6088	7.145781	32.12277
1402	5.45464	3.1386632	93.8674	93.3305	7.145763	32.12244
1403	5.45494	3.1385087	93.5900	93.0548	7.145800	32.12053
1404	5.45504	3.1383728	93.3343	92.8006	7.145854	32.11902
1405	5.45524	3.1381814	93.0723	92.5402	7.145924	32.11679
1406	5.45619	3.1380640	92.8075	92.2769	7.145860	32.11468
1407	5.45850	3.1379157	92.5425	92.0134	7.145640	32.11093
1408	5.46145	3.1378539	92.2833	91.7558	7.145292	32.10753
1409	5.46676	3.1377735	92.0246	91.4987	7.144655	32.10167
1410	5.47282	3.1378536	91.7565	91.2321	7.143836	32.09692
1411	5.47868	3.1378226	91.5007	90.9778	7.143103	32.09109
1412	5.48374	3.1377422	91.2419	90.7206	7.142498	32.08547
1413	5.48760	3.1376433	90.9799	90.4601	7.142054	32.08080
1414	5.49272	3.1374950	90.7210	90.2028	7.141479	32.07436
1415	5.49823	3.1374023	90.4563	89.9396	7.140822	32.06818
1416	5.50319	3.1373651	90.1698	89.6548	7.140206	32.06316
1417	5.50695	3.1370440	89.9018	89.3884	7.139893	32.05608
1418	5.51121	3.1366612	89.6400	89.1282	7.139549	32.04781
1419	5.51613	3.1365068	89.3809	88.8707	7.139002	32.04150
1420	5.51939	3.1366363	89.1188	88.6101	7.138514	32.03999
1421	5.52200	3.1365374	88.8572	88.3500	7.138229	32.03651
1422	5.52501	3.1361485	88.5950	88.0894	7.138048	32.02938
1423	5.52772	3.1360002	88.3301	87.8260	7.137776	32.02525
1424	5.53012	3.1359137	88.0650	87.5625	7.137511	32.02211
1425	5.53188	3.1360309	87.8092	87.3082	7.137220	32.02188
1426	5.53364	3.1359444	87.5443	87.0449	7.137037	32.01936
1427	5.53539	3.1357344	87.2855	86.7876	7.136920	32.01544
1428	5.53665	3.1356294	87.0173	86.5211	7.136810	32.01319
1429	5.53780	3.1355244	86.7554	86.2607	7.136714	32.01103
1430	5.53875	3.1356724	86.4996	86.0063	7.136509	32.01192
1431	5.53996	3.1356106	86.2346	85.7430	7.136383	32.01021
1432	5.54096	3.1354069	85.9695	85.4794	7.136357	32.00708
1433	5.54186	3.1352525	85.7106	85.2220	7.136318	32.00460
1434	5.54247	3.1351043	85.4456	84.9586	7.136314	32.00248
1435	5.54297	3.1350734	85.1716	84.6862	7.136261	32.00179
1436	5.54357	3.1350609	84.8974	84.4136	7.136185	32.00121
1437	5.54392	3.1350794	84.6295	84.1473	7.136125	32.00121
1438	5.54342	3.1348078	84.3704	83.8897	7.136326	31.99875
1439	5.54342	3.1348385	84.1086	83.6295	7.136304	31.99922
1440	5.54377	3.1348385	83.8466	83.3690	7.136253	31.99901
1441	5.54417	3.1346841	83.5816	83.1056	7.136278	31.99702
1442	5.54452	3.1346285	83.3165	82.8420	7.136257	31.99618
1443	5.54467	3.1346593	83.0517	82.5788	7.136215	31.99652
1444	5.54498	3.1346283	82.7896	82.3183	7.136188	31.99601
1445	5.54583	3.1345295	82.5368	82.0669	7.136126	31.99420
1446	5.54663	3.1345109	82.2778	81.8095	7.136028	31.99335
1447	5.54723	3.1345417	82.0098	81.5431	7.135929	31.99326
1448	5.54764	3.1345971	81.7448	81.2796	7.135843	31.99363
1449	5.54794	3.1345662	81.4828	81.0192	7.135815	31.99312
1450	5.54819	3.1345661	81.2149	80.7529	7.135777	31.99301
1451	5.54854	3.1344611	80.9531	80.4926	7.135782	31.99162
1452	5.54879	3.1345659	80.6908	80.2318	7.135689	31.99269
1453	5.54909	3.1345659	80.4289	79.9715	7.135645	31.99253
1454	5.54954	3.1345102	80.1671	79.7112	7.135611	31.99160
1455	5.54989	3.1344484	79.8806	79.4264	7.135593	31.99071
1456	5.55030	3.1345101	79.6188	79.1661	7.135504	31.99115
1457	5.55125	3.1343063	79.3537	78.9026	7.135484	31.98807
1458	5.55230	3.1342384	79.0856	78.6361	7.135381	31.98643
1459	5.55366	3.1341827	78.8268	78.3788	7.135232	31.98464
1460	5.55511	3.1338494	78.5648	78.1183	7.135218	31.97962
1461	5.55682	3.1336704	78.3060	77.8610	7.135090	31.97610
1462	5.55883	3.1336148	78.0439	77.6005	7.134859	31.97369
1463	5.56094	3.1335221	77.7727	77.3309	7.134635	31.97077
1464	5.56310	3.1333616	77.5140	77.0737	7.134440	31.96703
1465	5.56510	3.1332566	77.2458	76.8070	7.134235	31.96407
1466	5.56756	3.1330159	76.9871	76.5498	7.134044	31.95914
1467	5.57002	3.1327196	76.7250	76.2893	7.133883	31.95359
1468	5.57309	3.1325406	76.4631	76.0289	7.133583	31.94878
1469	5.57635	3.1323616	76.1979	75.7653	7.133258	31.94379
1470	5.57932	3.1323615	75.9451	75.5140	7.132877	31.94110
1471	5.58248	3.1320714	75.6863	75.2567	7.132623	31.93495
1472	5.58590	3.1317629	75.4335	75.0054	7.132347	31.92835
1473	5.58881	3.1315284	75.1867	74.7601	7.132096	31.92306
1474	5.59127	3.1313494	74.9247	74.4995	7.131872	31.91883
1475	5.59343	3.1312876	74.6689	74.2453	7.131625	31.91621
1476	5.59589	3.1309421	74.4253	74.0031	7.131490	31.91009
1477	5.59901	3.1306952	74.1723	73.7516	7.131220	31.90448
1478	5.60268	3.1305471	73.9196	73.5003	7.130827	31.89945
1479	5.60619	3.1303681	73.6699	73.2521	7.130470	31.89422
1480	5.60936	3.1302508	73.4229	73.0065	7.130125	31.89002
1481	5.61182	3.1300349	73.1642	72.7493	7.129921	31.88538
1482	5.61393	3.1298929	72.9053	72.4920	7.129722	31.88190
1483	5.61620	3.1297448	72.6401	72.2283	7.129508	31.87822
1484	5.61856	3.1295288	72.3935	71.9832	7.129316	31.87367
1485	5.62062	3.1294116	72.1436	71.7348	7.129111	31.87052
1486	5.62318	3.1292326	71.8908	71.4835	7.128875	31.86619
1487	5.62575	3.1291154	71.6381	71.2322	7.128606	31.86257
1488	5.62846	3.1289611	71.3820	70.9776	7.128337	31.85838
1489	5.63113	3.1288747	71.1356	70.7326	7.128040	31.85501
1490	5.63415	3.1288437	70.8763	70.4748	7.127668	31.85193
1491	5.63731	3.1286401	70.6237	70.2237	7.127368	31.84676
1492	5.63968	3.1284859	70.3771	69.9785	7.127144	31.84291
1493	5.64204	3.1284919	70.1211	69.7240	7.126836	31.84087
1494	5.64385	3.1283130	69.8741	69.4785	7.126695	31.83726
1495	5.64546	3.1281896	69.6063	69.2122	7.126550	31.83448
1496	5.64692	3.1281402	69.3442	68.9516	7.126385	31.83267
1497	5.64898	3.1277146	69.0884	68.6974	7.126342	31.82605
1498	5.65135	3.1277453	68.8294	68.4399	7.126020	31.82429
1499	5.65396	3.1276836	68.5798	68.1917	7.125716	31.82124
1500	5.65643	3.1274184	68.3238	67.9372	7.125537	31.81605
1501	5.65869	3.1274183	68.0710	67.6859	7.125245	31.81403
1502	5.66101	3.1274798	67.8120	67.4283	7.124913	31.81267
1503	5.66297	3.1272701	67.5621	67.1799	7.124769	31.80857
1504	5.66468	3.1270727	67.3063	66.9257	7.124651	31.80486
1505	5.66715	3.1270911	67.0503	66.6712	7.124323	31.80286
1506	5.66992	3.1270294	66.8007	66.4230	7.123999	31.79967
1507	5.67263	3.1269738	66.5477	66.1715	7.123678	31.79661
1508	5.67555	3.1270600	66.2950	65.9202	7.123258	31.79494
1509	5.67842	3.1269119	66.0391	65.6658	7.122966	31.79069
1510	5.68079	3.1266960	65.7861	65.4143	7.122774	31.78615
1511	5.68290	3.1266713	65.5394	65.1690	7.122514	31.78400
1512	5.68497	3.1266465	65.2806	64.9117	7.122260	31.78190
1513	5.68683	3.1265539	65.0217	64.6543	7.122067	31.77923
1514	5.68849	3.1266155	64.7717	64.4058	7.121818	31.77847
1515	5.68980	3.1264921	64.5127	64.1482	7.121712	31.77598
1516	5.69111	3.1265413	64.2601	63.8972	7.121514	31.77542
1517	5.69302	3.1263748	64.0041	63.6426	7.121354	31.77186
1518	5.69484	3.1264055	63.7512	63.3912	7.121102	31.77062
1519	5.69680	3.1264671	63.4954	63.1369	7.120816	31.76959
1520	5.69897	3.1263437	63.2455	62.8884	7.120601	31.76628
1521	5.70113	3.1262881	62.9898	62.6342	7.120350	31.76374
1522	5.70436	3.1262818	62.7367	62.3826	7.119940	31.76075
1523	5.70753	3.1261954	62.4809	62.1282	7.119578	31.75691
1524	5.71030	3.1261645	62.2311	61.8799	7.119237	31.75407
1525	5.71292	3.1262260	61.9783	61.6286	7.118868	31.75242
1526	5.71569	3.1260965	61.7255	61.3772	7.118580	31.74848
1527	5.71806	3.1261395	61.4694	61.1226	7.118252	31.74685
1528	5.72028	3.1261209	61.2075	60.8622	7.117975	31.74468
1529	5.72265	3.1260777	60.9364	60.5927	7.117692	31.74210
1530	5.72582	3.1260344	60.6837	60.3414	7.117307	31.73875
1531	5.72895	3.1260281	60.4307	60.0900	7.116909	31.73586
1532	5.73212	3.1259725	60.1718	59.8325	7.116531	31.73237
1533	5.73605	3.1259293	59.9188	59.5810	7.116051	31.72831
1534	5.74029	3.1258367	59.6662	59.3298	7.115558	31.72340
1535	5.74356	3.1257195	59.3981	59.0633	7.115199	31.71914
1536	5.74694	3.1258981	59.1390	58.8057	7.114672	31.71809
1537	5.75078	3.1257192	58.8892	58.5574	7.114276	31.71260
1538	5.75446	3.1256883	58.6303	58.2999	7.113821	31.70892
1539	5.75804	3.1257190	58.3804	58.0514	7.113346	31.70602
1540	5.76167	3.1255648	58.1213	57.7939	7.112962	31.70100
1541	5.76495	3.1256017	57.8655	57.5395	7.112523	31.69845
1542	5.76898	3.1255707	57.6189	57.2943	7.112023	31.69443
1543	5.77317	3.1254843	57.3569	57.0339	7.111533	31.68966
1544	5.77706	3.1254719	57.1100	56.7884	7.111043	31.68599
1545	5.78069	3.1254841	56.8542	56.5341	7.110572	31.68284
1546	5.78488	3.1255703	56.6014	56.2827	7.109992	31.68000
1547	5.78892	3.1255023	56.3514	56.0342	7.109512	31.67556
1548	5.79275	3.1254837	56.0895	55.7738	7.109031	31.67188
1549	5.79613	3.1256007	55.8398	55.5255	7.108537	31.67014
1550	5.79982	3.1255390	55.5807	55.2680	7.108098	31.66612
1551	5.80376	3.1256313	55.3218	55.0105	7.107546	31.66358
1552	5.80790	3.1257792	55.0597	54.7500	7.106941	31.66148
1553	5.81204	3.1257852	54.8130	54.5046	7.106409	31.65779
1554	5.81588	3.1257173	54.5600	54.2531	7.105954	31.65355
1555	5.81901	3.1257480	54.3071	54.0017	7.105537	31.65108
1556	5.82189	3.1257479	54.0605	53.7565	7.105168	31.64850
1557	5.82451	3.1257786	53.8047	53.5022	7.104815	31.64651
1558	5.82704	3.1257847	53.5487	53.2476	7.104487	31.64433
1559	5.82936	3.1258092	53.2927	52.9931	7.104175	31.64255
1560	5.83138	3.1258091	53.0428	52.7447	7.103915	31.64078
1561	5.83346	3.1258090	52.7779	52.4812	7.103648	31.63896
1562	5.83532	3.1258644	52.5312	52.2359	7.103377	31.63795
1563	5.83750	3.1259383	52.2782	51.9844	7.103059	31.63686
1564	5.84012	3.1260122	52.0284	51.7360	7.102683	31.63535
1565	5.84321	3.1261353	51.7665	51.4757	7.102224	31.63397
1566	5.84604	3.1261044	51.5104	51.2211	7.101878	31.63109
1567	5.84851	3.1260427	51.2636	50.9756	7.101592	31.62820
1568	5.85155	3.1260919	51.0108	50.7243	7.101178	31.62604
1569	5.85423	3.1260733	50.7517	50.4667	7.100844	31.62344
1570	5.85685	3.1260115	50.5019	50.2183	7.100539	31.62041
1571	5.85969	3.1260731	50.2431	49.9610	7.100144	31.61858
1572	5.86338	3.1262209	49.9963	49.7156	7.099596	31.61690
1573	5.86843	3.1263996	49.7404	49.4612	7.098860	31.61429
1574	5.87440	3.1266090	49.4782	49.2005	7.097993	31.61118
1575	5.88290	3.1269479	49.2165	48.9402	7.096740	31.60715
1576	5.89236	3.1272314	48.9422	48.6675	7.095395	31.60161
1577	5.90288	3.1277368	48.6863	48.4131	7.093801	31.59754
1578	5.91356	3.1280634	48.4303	48.1586	7.092281	31.59134
1579	5.92571	3.1284825	48.1805	47.9102	7.090528	31.58480
1580	5.93726	3.1289263	47.9246	47.6558	7.088840	31.57910
1581	5.94800	3.1292961	47.6624	47.3951	7.087291	31.57333
1582	5.95859	3.1293699	47.4187	47.1528	7.085916	31.56440
1583	5.96736	3.1296102	47.1660	46.9015	7.084684	31.55903
1584	5.97719	3.1298506	46.9129	46.6499	7.083317	31.55266
1585	5.98728	3.1301711	46.6632	46.4016	7.081878	31.54696
1586	5.99707	3.1303806	46.4103	46.1501	7.080535	31.54030
1587	6.00655	3.1305902	46.1605	45.9018	7.079230	31.53392
1588	6.01675	3.1307997	45.9045	45.6473	7.077836	31.52689
1589	6.02802	3.1311264	45.6546	45.3988	7.076247	31.52016
1590	6.04015	3.1316629	45.4048	45.1504	7.074443	31.51498
1591	6.05422	3.1319279	45.1520	44.8991	7.072537	31.50497
1592	6.06743	3.1321807	44.8870	44.6356	7.070745	31.49564
1593	6.07901	3.1324334	44.6433	44.3932	7.069157	31.48781
1594	6.09045	3.1326738	44.3841	44.1355	7.067595	31.47999
1595	6.10199	3.1330931	44.1344	43.8872	7.065928	31.47407
1596	6.11302	3.1333027	43.8815	43.6358	7.064433	31.46628
1597	6.12391	3.1333889	43.6286	43.3844	7.063021	31.45727
1598	6.13342	3.1337836	43.3695	43.1267	7.061622	31.45296
1599	6.14233	3.1340735	43.1197	42.8784	7.060354	31.44805
1600	6.15037	3.1342831	42.8668	42.6269	7.059235	31.44305
1601	6.15730	3.1345483	42.6202	42.3817	7.058228	31.43970
1602	6.16392	3.1346654	42.3671	42.1301	7.057335	31.43499
1603	6.16987	3.1347579	42.1082	41.8726	7.056537	31.43062
1604	6.17527	3.1348194	41.8584	41.6242	7.055825	31.42643
1605	6.17965	3.1349366	41.5964	41.3638	7.055212	31.42380
1606	6.18322	3.1347883	41.3435	41.1123	7.054837	31.41898
1607	6.18577	3.1346401	41.0875	40.8577	7.054589	31.41510
1608	6.18791	3.1345228	40.8282	40.5999	7.054375	31.41194
1609	6.19000	3.1343437	40.5787	40.3518	7.054200	31.40814
1610	6.19239	3.1341338	40.3320	40.1065	7.054003	31.40372
1611	6.19458	3.1339548	40.0700	39.8460	7.053815	31.39983
1612	6.19723	3.1337449	39.8139	39.5914	7.053585	31.39518
1613	6.20034	3.1337756	39.5642	39.3430	7.053176	31.39276
1614	6.20320	3.1336830	39.3021	39.0824	7.052861	31.38922
1615	6.20579	3.1335348	39.0246	38.8066	7.052606	31.38531
1616	6.20860	3.1336519	38.7689	38.5523	7.052190	31.38414
1617	6.21155	3.1335963	38.5068	38.2917	7.051843	31.38092
1618	6.21523	3.1334666	38.2479	38.0342	7.051445	31.37621
1619	6.21844	3.1335652	37.9735	37.7614	7.050988	31.37447
1620	6.22114	3.1336515	37.7115	37.5009	7.050601	31.37305
1621	6.22394	3.1335958	37.4618	37.2527	7.050273	31.36997
1622	6.22675	3.1335649	37.1997	36.9920	7.049933	31.36716
1623	6.22955	3.1336820	36.9436	36.7374	7.049518	31.36599
1624	6.23267	3.1338053	36.6909	36.4861	7.049061	31.36460
1625	6.23797	3.1341014	36.4440	36.2406	7.048242	31.36311
1626	6.24481	3.1341259	36.1973	35.9953	7.047371	31.35719
1627	6.25154	3.1344898	35.9503	35.7497	7.046340	31.35512
1628	6.25823	3.1350266	35.7129	35.5136	7.045228	31.35501
1629	6.26742	3.1354399	35.4657	35.2679	7.043866	31.35124
1630	6.27962	3.1359211	35.2252	35.0287	7.042095	31.34543
1631	6.29157	3.1365751	34.9816	34.7865	7.040268	31.34177
1632	6.30408	3.1371181	34.7470	34.5532	7.038428	31.33636
1633	6.31650	3.1377105	34.5092	34.3168	7.036575	31.33159
1634	6.32790	3.1383338	34.2594	34.0683	7.034835	31.32811
1635	6.34170	3.1391548	34.0004	33.8108	7.032696	31.32460
1636	6.35572	3.1398893	33.7384	33.5503	7.030575	31.31995
1637	6.36810	3.1402473	33.4975	33.3108	7.028849	31.31263
1638	6.37962	3.1405744	33.2385	33.0532	7.027247	31.30578
1639	6.39037	3.1407841	32.9797	32.7959	7.025800	31.29834
1640	6.39963	3.1409013	32.7328	32.5504	7.024585	31.29125
1641	6.40834	3.1411111	32.4921	32.3111	7.023392	31.28568
1642	6.41602	3.1410554	32.2513	32.0716	7.022461	31.27813
1643	6.42289	3.1410182	32.0047	31.8264	7.021623	31.27154
1644	6.43052	3.1412712	31.7426	31.5658	7.020542	31.26745
1645	6.43714	3.1415614	31.4868	31.3114	7.019570	31.26471
1646	6.44313	3.1415859	31.2428	31.0689	7.018808	31.25960
1647	6.44985	3.1419625	30.9839	30.8114	7.017780	31.25771
1648	6.45718	3.1421538	30.7249	30.5539	7.016769	31.25322
1649	6.46385	3.1427220	30.4780	30.3084	7.015651	31.25349
1650	6.47124	3.1430430	30.2345	30.0662	7.014569	31.25037
1651	6.48150	3.1433888	29.9752	29.8084	7.013118	31.24490
1652	6.49196	3.1436789	29.7134	29.5480	7.011670	31.23864
1653	6.50115	3.1440371	29.4575	29.2936	7.010347	31.23429
1654	6.50988	3.1442779	29.2135	29.0510	7.009140	31.22907
1655	6.51835	3.1447040	28.9487	28.7877	7.007872	31.22613
1656	6.52606	3.1446173	28.6864	28.5268	7.006956	31.21826
1657	6.53279	3.1443701	28.4121	28.2540	7.006242	31.20952
1658	6.53726	3.1454141	28.1439	27.9874	7.005160	31.21703
1659	6.54147	3.1451421	27.8911	27.7360	7.004770	31.21031
1660	6.54558	3.1449628	27.6474	27.4937	7.004346	31.20470
1661	6.55093	3.1452037	27.4006	27.2482	7.003559	31.20258
1662	6.55694	3.1454754	27.1536	27.0027	7.002674	31.20019
1663	6.56357	3.1452837	26.9098	26.7603	7.001945	31.19215
1664	6.57020	3.1454751	26.6601	26.5120	7.001024	31.18831
1665	6.57653	3.1453637	26.4071	26.2603	7.000293	31.18144
1666	6.58373	3.1456540	26.1603	26.0150	6.999253	31.17817
1667	6.59124	3.1458331	25.9074	25.7635	6.998230	31.17341
1668	6.59880	3.1459627	25.6423	25.4998	6.997226	31.16806
1669	6.60915	3.1459810	25.3741	25.2332	6.995934	31.15896
1670	6.61872	3.1460426	25.1274	24.9878	6.994716	31.15103
1671	6.62907	3.1461290	24.8775	24.7393	6.993390	31.14268
1672	6.63993	3.1462215	24.6216	24.4849	6.991998	31.13392
1673	6.65281	3.1464623	24.3776	24.2423	6.990284	31.12496
1674	6.66637	3.1465424	24.1310	23.9970	6.988568	31.11364
1675	6.67987	3.1465360	23.8628	23.7303	6.986900	31.10142
1676	6.69271	3.1465173	23.5976	23.4667	6.985322	31.08969
1677	6.70426	3.1466098	23.3570	23.2274	6.983847	31.08033
1678	6.71463	3.1463686	23.1039	22.9756	6.982684	31.06840
1679	6.72557	3.1462819	22.8634	22.7365	6.981375	31.05765
1680	6.73843	3.1466092	22.6074	22.4820	6.979625	31.04970
1681	6.75092	3.1468191	22.3575	22.2334	6.977978	31.04079
1682	6.76642	3.1469981	22.0861	21.9636	6.975977	31.02885
1683	6.78259	3.1469546	21.8303	21.7092	6.974004	31.01387
1684	6.79598	3.1468493	21.5806	21.4609	6.972405	31.00074
1685	6.80963	3.1469233	21.3272	21.2090	6.970685	30.98933
1686	6.82241	3.1469601	21.0593	20.9425	6.969091	30.97833
1687	6.83483	3.1467869	20.8064	20.6910	6.967646	30.96535
1688	6.84611	3.1464283	20.5534	20.4395	6.966432	30.95140
1689	6.85600	3.1460944	20.3067	20.1941	6.965377	30.93897
1690	6.86304	3.1455566	20.0629	19.9517	6.964772	30.92689
1691	6.87045	3.1453155	19.8038	19.6940	6.963977	30.91772
1692	6.87806	3.1447222	19.5328	19.4246	6.963328	30.90454
1693	6.88386	3.1441228	19.2767	19.1699	6.962905	30.89292
1694	6.88858	3.1437952	19.0298	18.9244	6.962483	30.88524
1695	6.89319	3.1435109	18.7800	18.6760	6.962051	30.87812
1696	6.89759	3.1432514	18.5301	18.4275	6.961633	30.87145
1697	6.90200	3.1429671	18.2802	18.1789	6.961227	30.86452
1698	6.90729	3.1427755	18.0242	17.9244	6.960667	30.85781
1699	6.91304	3.1427753	17.7713	17.6729	6.959955	30.85276
1700	6.91901	3.1423860	17.5122	17.4152	6.959409	30.84330
1701	6.92570	3.1423056	17.2746	17.1790	6.958623	30.83654
1702	6.93207	3.1419658	17.0278	16.9335	6.958002	30.82724
1703	6.93783	3.1418174	16.7839	16.6910	6.957363	30.82058
1704	6.94406	3.1416382	16.5402	16.4487	6.956683	30.81317
1705	6.94961	3.1416751	16.2933	16.2032	6.955978	30.80871
1706	6.95496	3.1417058	16.0403	15.9516	6.955303	30.80437
1707	6.96009	3.1416995	15.7813	15.6940	6.954670	30.79982
1708	6.96596	3.1419156	15.5345	15.4486	6.953840	30.79703
1709	6.97255	3.1420204	15.2816	15.1971	6.952976	30.79238
1710	6.97930	3.1418782	15.0379	14.9548	6.952213	30.78491
1711	6.98673	3.1418472	14.7909	14.7091	6.951313	30.77805
1712	6.99432	3.1416370	14.5410	14.4606	6.950481	30.76910
1713	7.00133	3.1416369	14.2944	14.2154	6.949617	30.76295
1714	7.00741	3.1415194	14.0566	13.9789	6.948925	30.75635
1715	7.01292	3.1415749	13.7914	13.7152	6.948218	30.75215
1716	7.01837	3.1414883	13.5445	13.4697	6.947587	30.74645
1717	7.02259	3.1411176	13.2915	13.2181	6.947247	30.73880
1718	7.02586	3.1408581	13.0356	12.9636	6.946967	30.73318
1719	7.02924	3.1406233	12.7858	12.7151	6.946663	30.72774
1720	7.03314	3.1402033	12.5389	12.4697	6.946386	30.71983
1721	7.03694	3.1399377	12.2982	12.2303	6.946045	30.71368
1722	7.04052	3.1397523	12.0634	11.9968	6.945692	30.70858
1723	7.04432	3.1396349	11.8167	11.7515	6.945279	30.70404
1724	7.04807	3.1395422	11.5638	11.5000	6.944861	30.69981
1725	7.05379	3.1394371	11.3230	11.2605	6.944207	30.69368
1726	7.06107	3.1393937	11.0731	11.0119	6.943331	30.68684
1727	7.06768	3.1392762	10.8110	10.7513	6.942574	30.67981
1728	7.07518	3.1391588	10.5794	10.5210	6.941710	30.67197
1729	7.08517	3.1391524	10.3265	10.2695	6.940485	30.66313
1730	7.09715	3.1391831	10.0888	10.0332	6.939000	30.65292
1731	7.11283	3.1388248	9.8388	9.7845	6.937252	30.63523
1732	7.12961	3.1386208	9.5981	9.5451	6.935295	30.61824
1733	7.14373	3.1384539	9.3542	9.3026	6.933645	30.60402
1734	7.15708	3.1383796	9.1074	9.0572	6.932045	30.59150
1735	7.17007	3.1381077	8.8667	8.8178	6.930586	30.57717
1736	7.18234	3.1378976	8.6198	8.5722	6.929185	30.56416
1737	7.19700	3.1375394	8.3699	8.3237	6.927563	30.54744
1738	7.21230	3.1373046	8.1231	8.0783	6.925804	30.53150
1739	7.22604	3.1368846	7.8732	7.8298	6.924326	30.51496
1740	7.23905	3.1363165	7.6232	7.5812	6.923008	30.49747
1741	7.25494	3.1357176	7.3794	7.3387	6.921354	30.47713
1742	7.27570	3.1349151	7.1326	7.0933	6.919205	30.45033
1743	7.30050	3.1342915	6.8798	6.8419	6.916477	30.42192
1744	7.33202	3.1330385	6.6329	6.5963	6.913234	30.38091
1745	7.36865	3.1317796	6.3919	6.3567	6.909373	30.33541
1746	7.40705	3.1302987	6.1391	6.1052	6.905405	30.28608
1747	7.45163	3.1285591	5.8800	5.8476	6.900809	30.22870
1748	7.49546	3.1274672	5.6119	5.5810	6.895996	30.17901
1749	7.53192	3.1265790	5.3587	5.3292	6.891985	30.13798
1750	7.56273	3.1258019	5.1059	5.0777	6.888610	30.10311
1751	7.58713	3.1250619	4.8499	4.8232	6.885996	30.07423
1752	7.61075	3.1241679	4.6153	4.5899	6.883550	30.04441
1753	7.63538	3.1233725	4.3471	4.3232	6.880934	30.01480
1754	7.65903	3.1230518	4.0940	4.0715	6.878215	29.99112
1755	7.68153	3.1222073	3.8473	3.8261	6.875883	29.96289
1756	7.70209	3.1211658	3.5973	3.5775	6.873880	29.93428
1757	7.72684	3.1202968	3.3324	3.3141	6.871288	29.90393
1758	7.75996	3.1189167	3.0882	3.0712	6.867923	29.86102
1759	7.79788	3.1175552	2.8478	2.8321	6.863971	29.81429
1760	7.83154	3.1163232	2.5976	2.5833	6.860475	29.77264
1761	7.86321	3.1148945	2.3356	2.3228	6.857311	29.73069
1762	7.88981	3.1136015	2.0705	2.0592	6.854697	29.69454
1763	7.91488	3.1133796	1.8418	1.8317	6.851770	29.67101
1764	7.94375	3.1121360	1.6162	1.6073	6.848861	29.63353
1765	7.96832	3.1110711	1.4120	1.4042	6.846388	29.60161
1766	7.97689	3.1123140	1.2079	1.2012	6.844775	29.60752
1767	7.97513	3.1122832	1.0252	1.0195	6.844997	29.60876
1768	7.98274	3.1120738	0.8238	0.8193	6.844173	29.60021
1769	7.99147	3.1113045	0.6380	0.6345	6.843474	29.58482
1770	7.99291	3.1105660	0.4370	0.4346	6.843640	29.57593
1771	7.98919	3.1185686	0.2357	0.2344	6.840374	29.66331
1772	7.91121	3.1230973	0.1230	0.1223	6.847655	29.77729
1773	7.64235	3.1219725	0.1230	0.1223	6.880669	29.99576
1774	7.47569	3.1283907	0.1200	0.1193	6.897851	30.20848
1775	7.35450	3.1363069	0.1263	0.1256	6.908800	30.39912
1776	7.20504	3.1363455	0.1202	0.1195	6.926993	30.53117
1777	7.08777	2.7882505	0.1262	0.1255	7.111356	26.90478
1778	7.01593	0.6615353	0.1232	0.1225	8.176220	5.66837
1779	6.99109	1.6265369	0.1234	0.1227	7.701863	14.96884
1780	6.99437	0.8186767	0.1234	0.1228	8.103334	7.12944
1781	6.99785	0.9855254	0.1235	0.1228	8.020261	8.70364
1782	7.00008	0.9341733	0.1266	0.1259	8.045271	8.21559
1783	7.00180	1.0603265	0.1234	0.1228	7.982441	9.41688
1784	7.00336	1.0018696	0.1266	0.1259	8.011154	8.85789
1785	7.00481	0.9547366	0.1237	0.1230	8.034228	8.40936
1786	7.00616	0.9715425	0.1297	0.1290	8.025662	8.56859
1787	7.00746	0.8488065	0.1237	0.1230	8.086040	7.40907
1788	7.00876	0.9430720	0.1207	0.1201	8.039270	8.29781
1789	7.00980	0.6801727	0.1297	0.1290	8.168311	5.84073
1790	7.01068	0.9892691	0.1268	0.1261	8.016057	8.73602
1791	7.01136	1.0438458	0.1330	0.1323	7.988888	9.25653
1792	7.01219	0.9583581	0.1300	0.1292	8.031079	8.44191
1793	7.01302	0.8556011	0.1210	0.1203	8.081653	7.47166
1794	7.01370	0.7916605	0.1301	0.1294	8.112978	6.87311
1795	7.01411	0.7748546	0.1239	0.1233	8.121150	6.71644
1796	7.01432	0.6155736	0.1271	0.1264	8.198890	5.24791
1797	7.01479	0.5762917	0.1269	0.1262	8.217847	4.89035
1798	7.01520	0.5347931	0.1302	0.1295	8.237817	4.51483
1799	7.01593	0.3725376	0.1272	0.1265	8.315227	3.07111
1800	7.01697	0.3132966	0.1240	0.1233	8.342909	2.55512
1801	7.01801	0.3541057	0.1213	0.1206	8.323515	2.90970
1802	7.01910	0.4991042	0.1272	0.1265	8.254230	4.19336
1803	7.02129	0.6104773	0.1213	0.1206	8.200014	5.20037
1804	7.04021	0.4596651	0.1212	0.1206	8.268954	3.83849
1805	7.06060	0.4041273	0.1245	0.1238	8.291327	3.34452
1806	7.06857	0.3467345	0.1273	0.1266	8.316810	2.84124
1807	7.07252	0.2923733	0.1275	0.1268	8.341421	2.37077
1808	7.07486	0.2697277	0.1243	0.1236	8.351453	2.17659
1809	7.07653	0.2407564	0.1275	0.1268	8.364481	1.92998
1810	7.07809	0.2253566	0.1274	0.1267	8.371230	1.79970
1811	7.07934	0.2133296	0.1275	0.1268	8.376475	1.69839
1812	7.08080	0.1928208	0.1244	0.1237	8.385515	1.52657
1813	7.08220	0.1889172	0.1277	0.1270	8.386998	1.49395
1814	7.08590	0.1747586	0.1307	0.1300	8.392644	1.37611
1815	7.08970	0.1792768	0.1215	0.1208	8.389821	1.41345
1816	7.09361	0.1736404	0.1247	0.1240	8.391562	1.36654
1817	7.10402	0.1616909	0.1217	0.1211	8.394795	1.26738
1818	7.10918	0.1525198	0.1218	0.1211	8.397842	1.19173
1819	7.11173	0.1460961	0.1278	0.1271	8.400186	1.13896
1820	7.11481	0.1400176	0.1278	0.1271	8.402261	1.08914
1821	7.11705	0.1340168	0.1248	0.1242	8.404466	1.04012
1822	7.11892	0.1221158	0.1279	0.1272	8.409349	0.94340
1823	7.12090	0.1155853	0.1218	0.1211	8.411819	0.89054
1824	7.12283	0.1113704	0.1281	0.1274	8.413274	0.85651
1825	7.12497	0.1072763	0.1250	0.1243	8.414629	0.82352
1826	7.12700	0.1042169	0.1249	0.1242	8.415548	0.79890
1827	7.12929	0.1245760	0.1251	0.1244	8.406116	0.96305
1828	7.13143	0.1918954	0.1249	0.1242	8.375547	1.51664
1829	7.13357	0.2040662	0.1282	0.1275	8.369593	1.61814
1830	7.13576	0.2193986	0.1252	0.1245	8.362170	1.74659
1831	7.13774	0.2149427	0.1251	0.1244	8.363796	1.70907
1832	7.13982	0.2008952	0.1223	0.1216	8.369752	1.59134
1833	7.14196	0.2016455	0.1222	0.1215	8.368974	1.59751
1834	7.14671	0.1837331	0.1282	0.1275	8.376103	1.44810
1835	7.15187	0.1701058	0.1255	0.1248	8.381176	1.33504
1836	7.16360	0.1528662	0.1194	0.1187	8.386478	1.19271
1837	7.17936	0.1562204	0.1253	0.1247	8.381742	1.21968
1838	7.20003	0.1795669	0.1225	0.1218	8.367053	1.41137
1839	7.21726	0.1782631	0.1255	0.1248	8.364112	1.39989
1840	7.22599	0.1705012	0.1225	0.1218	8.365801	1.33546
1841	7.23116	0.1677280	0.1254	0.1247	8.365981	1.31241
1842	7.23513	0.1621015	0.1257	0.1250	8.367676	1.26599
1843	7.23853	0.1592981	0.1256	0.1249	8.368228	1.24285
1844	7.24172	0.1413338	0.1318	0.1311	8.375541	1.09590
1845	7.24428	0.1347042	0.1286	0.1279	8.377941	1.04192
1846	7.24679	0.1264285	0.1316	0.1309	8.381066	0.97479
1847	7.24914	0.1192841	0.1257	0.1250	8.383714	0.91706
1848	7.26122	0.1143937	0.1258	0.1251	8.383365	0.87740
1849	7.30914	0.1122782	0.1289	0.1282	8.374427	0.85923
1850	7.35141	0.1101484	0.1318	0.1311	8.366668	0.84116
1851	7.37825	0.1079624	0.1288	0.1281	8.362108	0.82306
1852	7.39472	0.1092964	0.1289	0.1282	8.358155	0.83332
1853	7.40495	0.1194500	0.1229	0.1223	8.351666	0.91432
1854	7.41093	0.1250454	0.1289	0.1282	8.348014	0.95910
1855	7.41329	0.1304254	0.1290	0.1282	8.345191	1.00236
1856	7.41224	0.1318082	0.1291	0.1284	8.344803	1.01355
1857	7.40962	0.1314584	0.1320	0.1313	8.345492	1.01080
1858	7.40689	0.1238033	0.1200	0.1194	8.349380	0.94923
1859	7.40458	0.1145527	0.1260	0.1253	8.353863	0.87509
1860	7.40269	0.1074865	0.1199	0.1192	8.357302	0.81869
1861	7.40101	0.1085289	0.1231	0.1224	8.357197	0.82704
1862	7.39996	0.1194304	0.1260	0.1254	8.352695	0.91429
1863	7.39960	0.1234872	0.1292	0.1285	8.351008	0.94688
1864	7.39954	0.1236828	0.1260	0.1254	8.350934	0.94846
1865	7.39970	0.1175054	0.1262	0.1255	8.353583	0.89886
1866	7.39933	0.1141729	0.1263	0.1256	8.355101	0.87218
1867	7.39907	0.1137315	0.1262	0.1255	8.355346	0.86865
1868	7.39933	0.1048245	0.1263	0.1256	8.359138	0.79756
1869	7.39970	0.0987936	0.1201	0.1194	8.361657	0.74961
1870	7.40028	0.0946477	0.1233	0.1226	8.363317	0.71674
1871	7.40080	0.0915279	0.1265	0.1258	8.364545	0.69205
1872	7.40164	0.0893851	0.1231	0.1225	8.365289	0.67512
1873	7.40301	0.0878090	0.1265	0.1258	8.365682	0.66266
