Scan Count	Temperature [ITS-90, deg C]	Conductivity [S/m]	Pressure, Strain Gauge [db]	Depth [salt water, m]	Oxygen Saturation, Weiss [ml/l]	Salinity, Practical [PSU]
1	16.58227	0.0003270	-0.0989	-0.0984	6.812434	0.00912
2	16.58112	0.0003239	-0.1051	-0.1045	6.812599	0.00911
3	16.58045	0.0003239	-0.1021	-0.1016	6.812695	0.00911
4	16.57924	0.0003300	-0.1021	-0.1015	6.812869	0.00913
5	16.57850	0.0003239	-0.1051	-0.1045	6.812976	0.00911
6	16.57756	0.0003146	-0.1021	-0.1016	6.813113	0.00908
7	16.57709	0.0003177	-0.1051	-0.1045	6.813180	0.00909
8	16.57615	0.0003239	-0.1050	-0.1044	6.813314	0.00911
9	16.57433	0.0003146	-0.1020	-0.1015	6.813577	0.00908
10	16.57319	0.0003239	-0.1051	-0.1045	6.813740	0.00911
11	16.57151	0.0003300	-0.1021	-0.1016	6.813981	0.00913
12	16.56983	0.0003177	-0.1081	-0.1075	6.814225	0.00909
13	16.56808	0.0003177	-0.1052	-0.1046	6.814476	0.00909
14	16.56512	0.0003239	-0.0990	-0.0985	6.814901	0.00910
15	16.56331	0.0003239	-0.1021	-0.1015	6.815162	0.00910
16	16.56210	0.0003239	-0.0990	-0.0985	6.815336	0.00910
17	16.56049	0.0003177	-0.0990	-0.0984	6.815569	0.00908
18	16.55955	0.0003177	-0.0990	-0.0985	6.815705	0.00908
19	16.55827	0.0003239	-0.1051	-0.1045	6.815888	0.00910
20	16.55713	0.0003177	-0.0991	-0.0986	6.816053	0.00908
21	16.55565	0.0003239	-0.1021	-0.1016	6.816265	0.00910
22	16.55370	0.0003177	-0.1021	-0.1015	6.816546	0.00908
23	16.55007	0.0003177	-0.1021	-0.1015	6.817069	0.00908
24	16.54651	0.0003239	-0.1082	-0.1076	6.817581	0.00910
25	16.54342	0.0003177	-0.0960	-0.0955	6.818027	0.00908
26	16.54127	0.0003177	-0.1051	-0.1045	6.818336	0.00907
27	16.53832	0.0003239	-0.1051	-0.1045	6.818761	0.00909
28	16.53496	0.0003177	-0.1021	-0.1015	6.819246	0.00907
29	16.53180	0.0003146	-0.1052	-0.1046	6.819701	0.00906
30	16.53060	0.0003177	-0.1021	-0.1016	6.819875	0.00907
31	16.52818	0.0003177	-0.0991	-0.0985	6.820223	0.00907
32	16.52630	0.0003146	-0.0991	-0.0985	6.820495	0.00906
33	16.52516	0.0003177	-0.0990	-0.0985	6.820659	0.00907
34	16.52321	0.0003146	-0.1052	-0.1046	6.820940	0.00906
35	16.52120	0.0003177	-0.0961	-0.0955	6.821230	0.00907
36	16.51912	0.0003239	-0.0990	-0.0985	6.821529	0.00909
37	16.51811	0.0003239	-0.0990	-0.0985	6.821674	0.00909
38	16.51710	0.0003177	-0.0991	-0.0985	6.821820	0.00906
39	16.51589	0.0003146	-0.0990	-0.0984	6.821995	0.00905
40	16.51489	0.0003239	-0.1021	-0.1015	6.822139	0.00908
41	16.51381	0.0003085	-0.0991	-0.0985	6.822296	0.00903
42	16.51267	0.0003239	-0.0991	-0.0985	6.822458	0.00908
43	16.50999	0.0003177	-0.0990	-0.0985	6.822846	0.00906
44	16.50704	0.0003239	-0.0991	-0.0986	6.823271	0.00908
45	16.50408	0.0003239	-0.0960	-0.0954	6.823697	0.00908
46	16.50153	0.0003177	-0.0991	-0.0986	6.824066	0.00906
47	16.49899	0.0003146	-0.0990	-0.0985	6.824434	0.00905
48	16.49744	0.0003239	-0.0991	-0.0985	6.824655	0.00908
49	16.49610	0.0003146	-0.0990	-0.0984	6.824850	0.00905
50	16.49476	0.0003177	-0.1021	-0.1015	6.825043	0.00906
51	16.49342	0.0003177	-0.1051	-0.1045	6.825237	0.00905
52	16.49214	0.0003239	-0.1021	-0.1015	6.825420	0.00908
53	16.49080	0.0003177	-0.1020	-0.1015	6.825614	0.00905
54	16.48946	0.0003177	-0.0990	-0.0984	6.825808	0.00905
55	16.48852	0.0003146	-0.1020	-0.1015	6.825944	0.00904
56	16.48678	0.0003177	-0.1021	-0.1015	6.826195	0.00905
57	16.48437	0.0003146	-0.0990	-0.0985	6.826544	0.00904
58	16.48262	0.0003177	-0.0989	-0.0984	6.826795	0.00905
59	16.48141	0.0003177	-0.0959	-0.0954	6.826970	0.00905
60	16.48014	0.0003054	-0.0990	-0.0984	6.827155	0.00901
61	16.47914	0.0003177	-0.1020	-0.1014	6.827299	0.00905
62	16.47806	0.0003239	-0.1020	-0.1014	6.827453	0.00907
63	16.47686	0.0003085	-0.1020	-0.1014	6.827629	0.00902
64	16.47538	0.0003177	-0.1051	-0.1045	6.827841	0.00905
65	16.47411	0.0003146	-0.0959	-0.0954	6.828025	0.00904
66	16.47169	0.0003177	-0.1050	-0.1044	6.828373	0.00905
67	16.46741	0.0003239	-0.1020	-0.1015	6.828992	0.00907
68	16.46224	0.0003177	-0.1020	-0.1014	6.829739	0.00904
69	16.45822	0.0003177	-0.0959	-0.0954	6.830320	0.00904
70	16.45494	0.0003146	-0.0989	-0.0984	6.830794	0.00903
71	16.45320	0.0003085	-0.0989	-0.0984	6.831047	0.00901
72	16.45219	0.0003146	-0.1019	-0.1014	6.831191	0.00903
73	16.45099	0.0003177	-0.1020	-0.1014	6.831365	0.00904
74	16.45012	0.0003177	-0.0989	-0.0984	6.831491	0.00904
75	16.44885	0.0003146	-0.1020	-0.1014	6.831676	0.00903
76	16.44777	0.0003177	-0.1020	-0.1014	6.831830	0.00904
77	16.44643	0.0003146	-0.1019	-0.1013	6.832024	0.00903
78	16.44483	0.0003239	-0.0989	-0.0984	6.832255	0.00906
79	16.44315	0.0003177	-0.1111	-0.1105	6.832498	0.00903
80	16.44235	0.0003146	-0.1050	-0.1044	6.832615	0.00902
81	16.44088	0.0003239	-0.1051	-0.1045	6.832827	0.00905
82	16.43974	0.0003239	-0.0958	-0.0953	6.832991	0.00905
83	16.43833	0.0003239	-0.0989	-0.0983	6.833195	0.00905
84	16.43472	0.0003177	-0.1019	-0.1014	6.833719	0.00903
85	16.42909	0.0003239	-0.0989	-0.0983	6.834531	0.00905
86	16.42374	0.0003177	-0.1049	-0.1044	6.835307	0.00903
87	16.42039	0.0003085	-0.1050	-0.1044	6.835793	0.00899
88	16.41878	0.0003146	-0.1019	-0.1014	6.836024	0.00901
89	16.41785	0.0003239	-0.0988	-0.0983	6.836158	0.00905
90	16.41657	0.0003146	-0.1020	-0.1014	6.836344	0.00901
91	16.41584	0.0003177	-0.0989	-0.0983	6.836450	0.00902
92	16.41463	0.0003177	-0.1049	-0.1043	6.836624	0.00902
93	16.41356	0.0003146	-0.1020	-0.1014	6.836780	0.00901
94	16.41249	0.0003177	-0.0958	-0.0953	6.836934	0.00902
95	16.41156	0.0003146	-0.1050	-0.1044	6.837070	0.00901
96	16.41002	0.0003177	-0.1050	-0.1044	6.837293	0.00902
97	16.40808	0.0003177	-0.1018	-0.1013	6.837574	0.00902
98	16.40547	0.0003239	-0.1019	-0.1013	6.837950	0.00904
99	16.39958	0.0003085	-0.1019	-0.1013	6.838805	0.00899
100	16.37818	0.0003300	-0.1049	-0.1044	6.841902	0.00905
101	16.36027	0.0003239	-0.1049	-0.1043	6.844500	0.00902
102	16.34972	0.0003177	-0.1049	-0.1043	6.846032	0.00900
103	16.34398	0.0003239	-0.0988	-0.0982	6.846865	0.00902
104	16.34211	0.0003177	-0.1049	-0.1043	6.847137	0.00899
105	16.34057	0.0003146	-0.1019	-0.1013	6.847361	0.00898
106	16.34077	0.0003177	-0.0989	-0.0983	6.847331	0.00899
107	16.33990	0.0003177	-0.0988	-0.0983	6.847457	0.00899
108	16.33970	0.0003146	-0.1018	-0.1012	6.847487	0.00898
109	16.33944	0.0003177	-0.1079	-0.1073	6.847525	0.00899
110	16.33630	0.0003146	-0.0988	-0.0982	6.847981	0.00898
111	16.31994	0.0003177	-0.1019	-0.1013	6.850355	0.00898
112	16.30033	0.0003177	-0.0988	-0.0982	6.853206	0.00898
113	16.28833	0.0003146	-0.1018	-0.1012	6.854952	0.00896
114	16.28493	0.0003177	-0.1018	-0.1012	6.855446	0.00897
115	16.28213	0.0003177	-0.1018	-0.1013	6.855853	0.00897
116	16.27853	0.0003239	-0.1017	-0.1012	6.856376	0.00899
117	16.27160	0.0003177	-0.1019	-0.1013	6.857385	0.00896
118	16.26806	0.0003146	-0.1018	-0.1012	6.857900	0.00895
119	16.26567	0.0003177	-0.0987	-0.0982	6.858248	0.00896
120	16.26300	0.0003085	-0.1018	-0.1012	6.858638	0.00893
121	16.26080	0.0003054	-0.1018	-0.1012	6.858958	0.00892
122	16.25527	0.0003177	-0.1018	-0.1012	6.859761	0.00896
123	16.24988	0.0003146	-0.0987	-0.0982	6.860548	0.00894
124	16.24548	0.0003085	-0.0987	-0.0981	6.861189	0.00892
125	16.24335	0.0003085	-0.1048	-0.1042	6.861499	0.00892
126	16.24002	0.0003146	-0.1017	-0.1012	6.861983	0.00894
127	16.23729	0.0003177	-0.0957	-0.0951	6.862381	0.00895
128	16.23530	0.0003054	-0.1048	-0.1042	6.862673	0.00891
129	16.23243	0.0003085	-0.0957	-0.0952	6.863090	0.00892
130	16.22811	0.0003085	-0.1048	-0.1042	6.863721	0.00891
131	16.22312	0.0003054	-0.0987	-0.0982	6.864449	0.00890
132	16.21879	0.0003177	-0.1018	-0.1012	6.865078	0.00894
133	16.21147	0.0003054	-0.0926	-0.0921	6.866147	0.00890
134	16.20183	0.0003085	-0.0987	-0.0982	6.867553	0.00890
135	16.19152	0.0003085	-0.0987	-0.0982	6.869058	0.00890
136	16.18441	0.0003146	-0.0988	-0.0982	6.870095	0.00892
137	16.18228	0.0003085	-0.1017	-0.1012	6.870407	0.00890
138	16.18228	0.0003054	-0.1049	-0.1043	6.870407	0.00889
139	16.18315	0.0003085	-0.1047	-0.1042	6.870280	0.00890
140	16.18401	0.0003085	-0.1017	-0.1012	6.870154	0.00890
141	16.18275	0.0003054	-0.0957	-0.0951	6.870339	0.00889
142	16.17810	0.0003177	-0.1017	-0.1012	6.871017	0.00893
143	16.15889	0.0003085	-0.1017	-0.1012	6.873823	0.00889
144	16.14316	0.0003146	-0.0986	-0.0981	6.876123	0.00890
145	16.13453	0.0003085	-0.1017	-0.1012	6.877386	0.00888
146	16.12663	0.0002992	-0.1047	-0.1042	6.878543	0.00884
147	16.11608	0.0002992	-0.0986	-0.0981	6.880087	0.00884
148	16.10951	0.0003085	-0.1017	-0.1011	6.881047	0.00887
149	16.10653	0.0003054	-0.1016	-0.1011	6.881485	0.00885
150	16.09704	0.0003177	-0.1047	-0.1041	6.882872	0.00889
151	16.08896	0.0003054	-0.1047	-0.1041	6.884059	0.00885
152	16.08796	0.0003177	-0.0987	-0.0982	6.884203	0.00889
153	16.09128	0.0003085	-0.0987	-0.0981	6.883718	0.00886
154	16.09340	0.0002992	-0.0986	-0.0980	6.883409	0.00883
155	16.09002	0.0003085	-0.0956	-0.0950	6.883903	0.00886
156	16.08863	0.0003054	-0.1047	-0.1041	6.884107	0.00885
157	16.09108	0.0003085	-0.0986	-0.0981	6.883748	0.00886
158	16.09300	0.0003085	-0.1017	-0.1011	6.883466	0.00886
159	16.08869	0.0002992	-0.1017	-0.1011	6.884099	0.00883
160	16.08087	0.0003085	-0.1017	-0.1011	6.885244	0.00885
161	16.07882	0.0003054	-0.0986	-0.0980	6.885545	0.00884
162	16.08074	0.0003085	-0.1046	-0.1041	6.885263	0.00885
163	16.08114	0.0003085	-0.1077	-0.1071	6.885205	0.00885
164	16.07835	0.0002992	-0.0985	-0.0980	6.885614	0.00882
165	16.07888	0.0003085	-0.1047	-0.1041	6.885535	0.00885
166	16.08127	0.0003054	-0.1016	-0.1011	6.885186	0.00884
167	16.08339	0.0003085	-0.1077	-0.1071	6.884874	0.00886
168	16.07981	0.0002992	-0.1076	-0.1071	6.885400	0.00882
169	16.06636	0.0003054	-0.1016	-0.1010	6.887372	0.00884
170	16.05715	0.0003085	-0.1046	-0.1041	6.888722	0.00884
171	16.05517	0.0003085	-0.0985	-0.0980	6.889013	0.00884
172	16.05702	0.0003054	-0.0986	-0.0980	6.888742	0.00883
173	16.05994	0.0003085	-0.1016	-0.1011	6.888314	0.00885
174	16.06212	0.0003054	-0.1047	-0.1041	6.887993	0.00884
175	16.06484	0.0003085	-0.1016	-0.1011	6.887595	0.00885
176	16.06795	0.0003085	-0.0985	-0.0980	6.887138	0.00885
177	16.07040	0.0003054	-0.0985	-0.0980	6.886779	0.00884
178	16.07193	0.0003085	-0.0985	-0.0980	6.886555	0.00885
179	16.06914	0.0003054	-0.1076	-0.1071	6.886964	0.00884
180	16.06835	0.0003085	-0.1046	-0.1040	6.887080	0.00885
181	16.06835	0.0003085	-0.1046	-0.1040	6.887080	0.00885
182	16.06881	0.0003054	-0.1046	-0.1040	6.887012	0.00884
183	16.06543	0.0002992	-0.1016	-0.1010	6.887508	0.00882
184	16.06186	0.0003054	-0.1076	-0.1070	6.888032	0.00884
185	16.06225	0.0002992	-0.0985	-0.0979	6.887975	0.00881
186	16.06464	0.0003085	-0.0985	-0.0979	6.887624	0.00885
187	16.06689	0.0003054	-0.1015	-0.1010	6.887294	0.00884
188	16.06934	0.0003085	-0.1015	-0.1010	6.886934	0.00885
189	16.07139	0.0003054	-0.1046	-0.1040	6.886633	0.00884
190	16.07193	0.0003085	-0.1046	-0.1040	6.886555	0.00885
191	16.07226	0.0003085	-0.0954	-0.0949	6.886506	0.00885
192	16.07292	0.0002992	-0.1015	-0.1009	6.886411	0.00882
193	16.07405	0.0002992	-0.0923	-0.0918	6.886245	0.00882
194	16.07179	0.0003054	-0.1046	-0.1040	6.886575	0.00884
195	16.06696	0.0002992	-0.1045	-0.1040	6.887285	0.00882
196	16.06212	0.0003085	-0.1045	-0.1040	6.887993	0.00885
197	16.05894	0.0003054	-0.0954	-0.0949	6.888460	0.00883
198	16.05669	0.0003085	-0.1014	-0.1009	6.888790	0.00884
199	16.05676	0.0003085	-0.1045	-0.1040	6.888780	0.00884
200	16.05841	0.0002992	-0.0984	-0.0979	6.888538	0.00881
201	16.05987	0.0002992	-0.0984	-0.0979	6.888325	0.00881
202	16.06139	0.0003054	-0.0985	-0.0979	6.888100	0.00884
203	16.06258	0.0002992	-0.1014	-0.1009	6.887926	0.00881
204	16.06364	0.0003085	-0.1014	-0.1009	6.887769	0.00885
205	16.06457	0.0002992	-0.0984	-0.0978	6.887635	0.00882
206	16.05947	0.0002992	-0.0984	-0.0979	6.888383	0.00881
207	16.05113	0.0003054	-0.0954	-0.0949	6.889606	0.00883
208	16.04656	0.0002992	-0.0984	-0.0978	6.890278	0.00881
209	16.03590	0.0003085	-0.1045	-0.1039	6.891841	0.00884
210	16.01757	0.0003054	-0.1045	-0.1039	6.894533	0.00882
211	16.00540	0.0002992	-0.1014	-0.1009	6.896323	0.00879
212	16.00130	0.0003054	-0.1014	-0.1008	6.896925	0.00881
213	16.00236	0.0002992	-0.1045	-0.1039	6.896770	0.00879
214	16.00150	0.0003085	-0.1015	-0.1009	6.896895	0.00882
215	15.99780	0.0002992	-0.1013	-0.1008	6.897441	0.00879
216	15.99535	0.0002992	-0.1014	-0.1008	6.897801	0.00879
217	15.99099	0.0002992	-0.0953	-0.0948	6.898442	0.00879
218	15.97163	0.0003085	-0.0984	-0.0978	6.901290	0.00881
219	15.94231	0.0003085	-0.1014	-0.1008	6.905608	0.00880
220	15.92871	0.0002992	-0.0953	-0.0947	6.907613	0.00876
221	15.92350	0.0002992	-0.0985	-0.0980	6.908381	0.00876
222	15.91724	0.0003146	-0.0986	-0.0981	6.909303	0.00881
223	15.90873	0.0003085	-0.0988	-0.0982	6.910559	0.00878
224	15.89244	0.0003085	-0.0957	-0.0952	6.912962	0.00878
225	15.86998	0.0003054	-0.0926	-0.0920	6.916281	0.00876
226	15.85042	0.0002715	-0.0894	-0.0890	6.919177	0.00863
227	15.83989	0.0002191	-0.0835	-0.0830	6.920741	0.00846
228	15.84008	0.0002129	-0.0744	-0.0739	6.920713	0.00844
229	15.84515	0.0001913	-0.0744	-0.0739	6.919966	0.00838
230	15.84989	0.0002191	-0.0742	-0.0738	6.919262	0.00847
231	15.85496	0.0002376	-0.0834	-0.0830	6.918510	0.00853
232	15.85977	0.0002376	-0.0864	-0.0860	6.917799	0.00853
233	15.86471	0.0003855	-0.0836	-0.0832	6.917048	0.00904
234	15.86734	0.0002530	-0.0750	-0.0746	6.916678	0.00858
235	15.87017	-0.0002618	-0.0648	-0.0644	6.916620	0.00000
236	15.87353	0.0002992	-0.1013	-0.1008	6.915756	0.00874
237	15.87894	0.0002992	-0.1013	-0.1007	6.914958	0.00874
238	15.88302	0.0002992	-0.1013	-0.1008	6.914355	0.00874
239	15.88730	0.0002992	-0.1075	-0.1069	6.913723	0.00874
240	15.89066	0.0002992	-0.0982	-0.0977	6.913226	0.00874
241	15.88757	0.0003177	-0.0953	-0.0947	6.913681	0.00881
242	15.88157	0.0003085	-0.1104	-0.1098	6.914568	0.00877
243	15.87676	0.0003054	-0.1013	-0.1008	6.915279	0.00876
244	15.87446	0.0003085	-0.1012	-0.1007	6.915619	0.00877
245	15.87294	0.0003054	-0.1013	-0.1007	6.915843	0.00876
246	15.87149	0.0003177	-0.0983	-0.0977	6.916055	0.00880
247	15.86760	0.0003177	-0.1044	-0.1038	6.916630	0.00880
248	15.86016	0.0003054	-0.1043	-0.1037	6.917731	0.00875
249	15.85154	0.0003177	-0.1012	-0.1007	6.919005	0.00879
250	15.84226	0.0003054	-0.0982	-0.0976	6.920379	0.00874
251	15.83179	0.0003239	-0.0982	-0.0976	6.921924	0.00880
252	15.82587	0.0002992	-0.1012	-0.1006	6.922804	0.00872
253	15.82252	0.0003054	-0.0982	-0.0976	6.923300	0.00874
254	15.82068	0.0003085	-0.1013	-0.1007	6.923572	0.00875
255	15.81903	0.0003085	-0.0982	-0.0977	6.923815	0.00875
256	15.81462	0.0002992	-0.1012	-0.1006	6.924469	0.00871
257	15.81042	0.0003177	-0.0981	-0.0976	6.925090	0.00877
258	15.80581	0.0002992	-0.0951	-0.0946	6.925774	0.00871
259	15.80226	0.0002992	-0.0981	-0.0976	6.926300	0.00871
260	15.80049	0.0002992	-0.1012	-0.1006	6.926563	0.00871
261	15.79779	0.0002992	-0.0921	-0.0916	6.926962	0.00870
262	15.79687	0.0002992	-0.0982	-0.0976	6.927098	0.00870
263	15.79740	0.0002992	-0.1012	-0.1007	6.927021	0.00870
264	15.79852	0.0003085	-0.0981	-0.0976	6.926854	0.00874
265	15.79536	0.0003085	-0.1042	-0.1037	6.927321	0.00874
266	15.79050	0.0002992	-0.1042	-0.1036	6.928043	0.00870
267	15.79050	0.0003085	-0.1012	-0.1006	6.928042	0.00873
268	15.79214	0.0002992	-0.0981	-0.0976	6.927800	0.00870
269	15.79359	0.0002992	-0.1012	-0.1006	6.927585	0.00870
270	15.79615	0.0002992	-0.1072	-0.1066	6.927206	0.00870
271	15.79812	0.0003054	-0.1041	-0.1036	6.926913	0.00873
272	15.79865	0.0002992	-0.1012	-0.1006	6.926836	0.00870
273	15.79871	0.0002992	-0.1012	-0.1006	6.926826	0.00870
274	15.79937	0.0003085	-0.1011	-0.1005	6.926727	0.00874
275	15.79825	0.0002992	-0.0981	-0.0975	6.926894	0.00870
276	15.79300	0.0002992	-0.0950	-0.0945	6.927673	0.00870
277	15.78793	0.0003085	-0.0981	-0.0975	6.928422	0.00873
278	15.78524	0.0002992	-0.0982	-0.0976	6.928822	0.00870
279	15.78386	0.0002992	-0.1011	-0.1006	6.929027	0.00870
280	15.78136	0.0002992	-0.0980	-0.0975	6.929397	0.00870
281	15.78182	0.0002992	-0.1042	-0.1036	6.929329	0.00870
282	15.78307	0.0002992	-0.0980	-0.0975	6.929144	0.00870
283	15.77860	0.0002900	-0.1011	-0.1005	6.929807	0.00866
284	15.76442	0.0002992	-0.0980	-0.0975	6.931910	0.00869
285	15.74485	0.0002900	-0.1010	-0.1004	6.934815	0.00865
286	15.72668	0.0002992	-0.1011	-0.1005	6.937513	0.00867
287	15.71291	0.0002992	-0.0950	-0.0945	6.939559	0.00867
288	15.70458	0.0002992	-0.0980	-0.0975	6.940797	0.00867
289	15.67044	0.2428694	-0.0372	-0.0370	6.881050	1.54740
290	14.53888	1.5477060	0.0085	0.0084	6.630897	11.54582
291	12.99756	1.2009530	0.0297	0.0296	6.959092	9.13009
292	12.07831	1.2419970	0.0116	0.0115	7.077092	9.70072
293	11.49862	0.2339828	-0.0310	-0.0309	7.541369	1.65650
294	11.21500	0.1356466	-0.0644	-0.0641	7.624961	0.94049
295	11.16671	0.1247589	-0.0828	-0.0823	7.637204	0.86264
296	11.13107	0.9707999	-0.0311	-0.0309	7.324640	7.62740
297	10.85978	1.3162402	0.0329	0.0327	7.229821	10.67383
298	10.55134	2.6732337	0.0512	0.0509	6.722006	23.29969
299	10.29416	2.6789851	0.0511	0.0509	6.751322	23.52005
300	10.14553	2.6783111	0.0450	0.0448	6.769998	23.60986
301	10.06456	2.6920730	0.0786	0.0781	6.774301	23.79631
302	10.02366	2.6793775	0.1607	0.1598	6.784695	23.69965
303	9.91487	2.6721575	0.3038	0.3021	6.801296	23.70051
304	9.79813	2.6752940	0.4559	0.4534	6.814578	23.80782
305	9.70493	2.6875641	0.5502	0.5472	6.821042	23.98976
306	9.65719	2.6934881	0.5898	0.5866	6.824498	24.07978
307	9.64641	2.7023241	0.6141	0.6107	6.822073	24.17388
308	9.68902	2.7009807	0.6385	0.6350	6.817315	24.13210
309	9.69075	2.6938086	0.6598	0.6562	6.820158	24.06049
310	9.65496	2.6939373	0.6934	0.6896	6.824587	24.08565
311	9.62693	2.6975374	0.7299	0.7259	6.826562	24.13982
312	9.60473	2.7002342	0.7542	0.7500	6.828190	24.18125
313	9.58411	2.7007949	0.7908	0.7864	6.830537	24.20063
314	9.56299	2.7039718	0.8425	0.8378	6.831823	24.24615
315	9.55623	2.7218549	0.8820	0.8772	6.824993	24.42716
316	9.62271	2.7172888	0.8821	0.8772	6.818642	24.33708
317	9.85771	2.7205115	0.8577	0.8530	6.788018	24.21059
318	10.06535	2.7240463	0.8455	0.8409	6.760853	24.10653
319	10.16781	2.7235535	0.8364	0.8318	6.748442	24.03378
320	10.14227	2.7217209	0.8456	0.8409	6.752347	24.03289
321	10.03471	2.7175777	0.8608	0.8561	6.767339	24.06390
322	9.93069	2.7142557	0.8912	0.8863	6.781606	24.10066
323	9.84448	2.7128295	0.9033	0.8984	6.792908	24.14423
324	9.77339	2.6984407	0.9156	0.9106	6.807859	24.05073
325	9.71816	2.7014184	0.9186	0.9136	6.813490	24.11681
326	9.67863	2.7157028	0.9217	0.9166	6.812339	24.28371
327	9.64930	2.7191671	0.9095	0.9045	6.814520	24.33760
328	9.62160	2.7138315	0.8943	0.8894	6.820260	24.30377
329	9.59054	2.7087042	0.8730	0.8682	6.826342	24.27422
330	9.56266	2.7045618	0.8486	0.8440	6.831612	24.25219
331	9.54527	2.7013090	0.8425	0.8379	6.835191	24.23184
332	9.54095	2.7004741	0.8578	0.8531	6.836092	24.22651
333	9.54228	2.7030901	0.8760	0.8712	6.834801	24.25141
334	9.55191	2.7186881	0.8852	0.8803	6.826893	24.39883
335	9.58178	2.7334859	0.8913	0.8864	6.816814	24.52459
336	9.58361	2.7353274	0.8913	0.8864	6.815797	24.54152
337	9.62177	2.7329343	0.8912	0.8863	6.812067	24.49191
338	9.65530	2.7191671	0.8942	0.8893	6.813771	24.33355
339	9.64958	2.7092414	0.9004	0.8954	6.818726	24.23972
340	9.62132	2.7072196	0.9095	0.9045	6.823124	24.23883
341	9.60407	2.7122936	0.9126	0.9076	6.823111	24.30045
342	9.61250	2.7260594	0.9004	0.8955	6.816164	24.43043
343	9.63187	2.7325062	0.8883	0.8834	6.810992	24.48082
344	9.62748	2.7216142	0.8700	0.8652	6.816196	24.37647
345	9.60379	2.7091308	0.8517	0.8470	6.824499	24.26949
346	9.56814	2.7016475	0.8457	0.8411	6.832174	24.21976
347	9.54233	2.7001530	0.8609	0.8562	6.836056	24.22240
348	9.53624	2.7020740	0.8791	0.8743	6.835996	24.24546
349	9.53607	2.7069924	0.8853	0.8804	6.833902	24.29411
350	9.54300	2.7177167	0.8944	0.8895	6.828427	24.39529
351	9.56676	2.7247419	0.8974	0.8925	6.822439	24.44850
352	9.58827	2.7210584	0.8913	0.8865	6.821331	24.39756
353	9.58982	2.7166981	0.8913	0.8865	6.823006	24.35351
354	9.57175	2.7110602	0.8974	0.8925	6.827685	24.31013
355	9.54809	2.7073371	0.8913	0.8864	6.832247	24.28939
356	9.52838	2.7069925	0.8884	0.8835	6.834868	24.29931
357	9.51626	2.7080620	0.8914	0.8865	6.835929	24.31807
358	9.51089	2.7097453	0.8762	0.8714	6.835878	24.33833
359	9.50840	2.7106865	0.8762	0.8713	6.835785	24.34932
360	9.50574	2.7107392	0.8580	0.8533	6.836095	24.35164
361	9.50187	2.7085238	0.8519	0.8472	6.837535	24.33238
362	9.49512	2.7033300	0.8549	0.8502	6.840619	24.28563
363	9.48661	2.6995639	0.8762	0.8714	6.843313	24.25417
364	9.48069	2.6990445	0.8915	0.8866	6.844282	24.25302
365	9.48484	2.7062976	0.9158	0.9107	6.840634	24.32189
366	9.51736	2.7296757	0.9250	0.9199	6.826492	24.53088
367	9.56305	2.7386130	0.9280	0.9229	6.816951	24.58799
368	9.60146	2.7441073	0.9037	0.8987	6.809813	24.61598
369	9.73691	2.7397676	0.8703	0.8655	6.794842	24.48094
370	9.88167	2.7262504	0.8642	0.8594	6.782625	24.25069
371	9.93864	2.7194572	0.8582	0.8534	6.778432	24.14617
372	9.90369	2.7226657	0.8672	0.8624	6.781410	24.20088
373	9.86815	2.7375717	0.8642	0.8595	6.779521	24.37061
374	9.84962	2.7416508	0.8703	0.8655	6.780090	24.42309
375	9.84895	2.7461724	0.8642	0.8595	6.778262	24.46787
376	9.90861	2.7445684	0.8673	0.8625	6.771575	24.41182
377	9.99356	2.7380282	0.8673	0.8625	6.763849	24.29074
378	10.03000	2.7325613	0.8611	0.8564	6.761650	24.21303
379	10.02164	2.7303512	0.8764	0.8716	6.763605	24.19706
380	9.99541	2.7386561	0.9008	0.8958	6.763359	24.29562
381	9.98488	2.7470700	0.9130	0.9080	6.761128	24.38484
382	9.97043	2.7500257	0.9129	0.9079	6.761665	24.42345
383	10.01407	2.7521825	0.8978	0.8928	6.755395	24.41509
384	10.12405	2.7509589	0.8735	0.8687	6.742416	24.32926
385	10.22205	2.7432914	0.8461	0.8415	6.733601	24.18932
386	10.25250	2.7355091	0.8400	0.8354	6.733095	24.09365
387	10.22978	2.7336677	0.8460	0.8414	6.736641	24.09086
388	10.15082	2.7408732	0.8583	0.8536	6.743330	24.21328
389	10.11056	2.7491312	0.8674	0.8626	6.744830	24.32052
390	10.08635	2.7522995	0.8857	0.8809	6.746478	24.36761
391	10.10921	2.7539514	0.8827	0.8779	6.742987	24.36834
392	10.22228	2.7538445	0.8857	0.8809	6.729203	24.29156
393	10.34032	2.7491585	0.8797	0.8748	6.716739	24.16756
394	10.40381	2.7439122	0.8797	0.8748	6.711163	24.07484
395	10.41208	2.7410118	0.8798	0.8749	6.711345	24.04139
396	10.38937	2.7442353	0.8889	0.8840	6.712788	24.08749
397	10.36917	2.7513387	0.8920	0.8871	6.712330	24.16949
398	10.35367	2.7538434	0.8890	0.8841	6.713187	24.20400
399	10.31946	2.7541141	0.8767	0.8719	6.717239	24.22937
400	10.33568	2.7548255	0.8554	0.8507	6.714971	24.22547
401	10.37437	2.7531905	0.8555	0.8508	6.710936	24.18395
402	10.39707	2.7480710	0.8616	0.8569	6.710276	24.11945
403	10.40942	2.7453862	0.8647	0.8599	6.709875	24.08537
404	10.40262	2.7489405	0.8708	0.8660	6.709244	24.12417
405	10.38496	2.7543899	0.8891	0.8842	6.709156	24.18851
406	10.37154	2.7557780	0.9012	0.8963	6.710217	24.21082
407	10.36860	2.7569544	0.8983	0.8933	6.710092	24.22415
408	10.39786	2.7565130	0.8953	0.8903	6.706716	24.20045
409	10.42199	2.7550718	0.8984	0.8934	6.704376	24.17053
410	10.43214	2.7546600	0.8892	0.8843	6.703313	24.15983
411	10.43645	2.7568126	0.8801	0.8753	6.701909	24.17776
412	10.44308	2.7597367	0.8618	0.8571	6.699907	24.20158
413	10.45419	2.7604428	0.8527	0.8480	6.698270	24.20103
414	10.45839	2.7565418	0.8467	0.8421	6.699357	24.16062
415	10.45062	2.7515555	0.8528	0.8482	6.702339	24.11767
416	10.42188	2.7492930	0.8650	0.8602	6.706758	24.11484
417	10.39107	2.7541135	0.8894	0.8845	6.708527	24.18178
418	10.37188	2.7589429	0.9016	0.8966	6.708876	24.24120
419	10.35706	2.7608321	0.8955	0.8906	6.709901	24.26933
420	10.43401	2.7608549	0.8894	0.8845	6.700549	24.21838
421	10.56038	2.7565703	0.8895	0.8846	6.686991	24.09350
422	10.63883	2.7505369	0.8896	0.8847	6.679956	23.98399
423	10.65690	2.7484506	0.8957	0.8907	6.678617	23.95215
424	10.60659	2.7512778	0.9109	0.9058	6.683553	24.01224
425	10.57449	2.7564585	0.9141	0.9090	6.685331	24.08312
426	10.55362	2.7592002	0.8988	0.8939	6.686740	24.12326
427	10.57216	2.7605006	0.8714	0.8666	6.683969	24.12354
428	10.63433	2.7574168	0.8532	0.8485	6.677712	24.05298
429	10.66739	2.7522590	0.8380	0.8334	6.675809	23.98182
430	10.66956	2.7487736	0.8350	0.8304	6.676957	23.94699
431	10.61177	2.7481160	0.8502	0.8456	6.684208	23.97851
432	10.51179	2.7524779	0.8655	0.8607	6.694541	24.08616
433	10.46548	2.7562418	0.8838	0.8790	6.698620	24.15302
434	10.42097	2.7579893	0.8960	0.8911	6.703305	24.19937
435	10.44308	2.7586246	0.9051	0.9002	6.700363	24.19084
436	10.54526	2.7578235	0.8900	0.8851	6.688311	24.11553
437	10.63592	2.7537585	0.8960	0.8911	6.679002	24.01681
438	10.67669	2.7503015	0.9022	0.8973	6.675479	23.95695
439	10.67549	2.7501370	0.9022	0.8973	6.675690	23.95615
440	10.65239	2.7536819	0.9145	0.9095	6.677044	24.00526
441	10.63330	2.7568403	0.9084	0.9034	6.678070	24.04810
442	10.60915	2.7571405	0.8932	0.8883	6.680864	24.06687
443	10.60807	2.7577406	0.8598	0.8550	6.680751	24.07335
444	10.63803	2.7567049	0.8386	0.8340	6.677553	24.04372
445	10.66579	2.7535348	0.8264	0.8218	6.675485	23.99510
446	10.68296	2.7494845	0.8295	0.8250	6.675050	23.94504
447	10.63364	2.7470055	0.8538	0.8492	6.682013	23.95352
448	10.45986	2.7491046	0.8904	0.8855	6.702220	24.08792
449	10.35763	2.7542608	0.9330	0.9279	6.712534	24.20539
450	10.31217	2.7574432	0.9484	0.9432	6.716756	24.26643
451	10.35989	2.7584841	0.9362	0.9310	6.710523	24.24473
452	10.50339	2.7581239	0.9180	0.9130	6.693257	24.14607
453	10.61405	2.7535941	0.8815	0.8766	6.681711	24.02959
454	10.67018	2.7489793	0.8633	0.8586	6.676798	23.94854
455	10.69243	2.7475219	0.8542	0.8495	6.674700	23.92004
456	10.63085	2.7483685	0.8541	0.8494	6.681798	23.96843
457	10.52236	2.7522603	0.8664	0.8617	6.693349	24.07710
458	10.47751	2.7532484	0.8665	0.8617	6.698384	24.11622
459	10.45567	2.7546598	0.8787	0.8739	6.700457	24.14426
460	10.49720	2.7550417	0.8696	0.8648	6.695264	24.12049
461	10.56164	2.7534593	0.8727	0.8679	6.688105	24.06277
462	10.59964	2.7515189	0.8788	0.8740	6.684295	24.01913
463	10.60061	2.7513602	0.8910	0.8861	6.684242	24.01696
464	10.59395	2.7525889	0.9003	0.8953	6.684549	24.03314
465	10.59782	2.7541411	0.9093	0.9043	6.683451	24.04550
466	10.60437	2.7549290	0.9216	0.9165	6.682340	24.04876
467	10.60346	2.7555877	0.9185	0.9135	6.682183	24.05569
468	10.59868	2.7561583	0.9156	0.9105	6.682529	24.06432
469	10.59276	2.7563760	0.9126	0.9075	6.683156	24.07030
470	10.59429	2.7561583	0.8913	0.8864	6.683058	24.06721
471	10.60255	2.7548643	0.8822	0.8774	6.682586	24.04935
472	10.60203	2.7535118	0.8549	0.8502	6.683196	24.03671
473	10.59281	2.7533238	0.8427	0.8381	6.684388	24.04096
474	10.58302	2.7534885	0.8428	0.8381	6.685505	24.04898
475	10.57466	2.7525890	0.8398	0.8352	6.686882	24.04584
476	10.54572	2.7517486	0.8581	0.8534	6.690728	24.05680
477	10.50725	2.7530482	0.8856	0.8807	6.694859	24.09465
478	10.49221	2.7548477	0.9099	0.9049	6.695949	24.12190
479	10.49215	2.7558887	0.9222	0.9171	6.695531	24.13197
480	10.51571	2.7571472	0.9344	0.9293	6.692163	24.12851
481	10.58337	2.7570054	0.9253	0.9202	6.684036	24.08253
482	10.64726	2.7550404	0.9040	0.8991	6.677113	24.02166
483	10.68387	2.7524764	0.8889	0.8840	6.673732	23.97309
484	10.68770	2.7511419	0.8767	0.8719	6.673810	23.95781
485	10.66933	2.7498432	0.8768	0.8720	6.676552	23.95738
486	10.64766	2.7489090	0.8738	0.8690	6.679547	23.96260
487	10.63877	2.7494027	0.8830	0.8781	6.680422	23.97315
488	10.62419	2.7523946	0.8890	0.8842	6.680972	24.01142
489	10.61593	2.7548642	0.8770	0.8722	6.680969	24.04056
490	10.62077	2.7561581	0.8770	0.8722	6.679859	24.04980
491	10.66174	2.7533467	0.8649	0.8601	6.676050	23.99593
492	10.69158	2.7494022	0.8620	0.8572	6.674044	23.93861
493	10.70470	2.7471164	0.8711	0.8663	6.673383	23.90814
494	10.68764	2.7473398	0.8894	0.8845	6.675353	23.92141
495	10.65581	2.7501371	0.9076	0.9027	6.678066	23.96903
496	10.64327	2.7526943	0.9291	0.9240	6.678546	24.00176
497	10.62470	2.7552288	0.9230	0.9180	6.679762	24.03828
498	10.64709	2.7565108	0.9047	0.8997	6.676539	24.03588
499	10.70339	2.7525291	0.8896	0.8847	6.671356	23.96082
500	10.74137	2.7476860	0.8714	0.8666	6.668730	23.88968
501	10.73811	2.7452658	0.8715	0.8667	6.670098	23.86866
502	10.70413	2.7453836	0.8776	0.8728	6.674152	23.89192
503	10.62675	2.7490208	0.8838	0.8789	6.682030	23.97736
504	10.57438	2.7514956	0.8868	0.8819	6.687361	24.03550
505	10.53924	2.7535947	0.8870	0.8821	6.690762	24.07882
506	10.56619	2.7540061	0.8778	0.8729	6.687332	24.06503
507	10.63985	2.7506486	0.8688	0.8640	6.679786	23.98440
508	10.69186	2.7468698	0.8688	0.8641	6.675033	23.91416
509	10.69666	2.7444263	0.8718	0.8670	6.675441	23.88763
510	10.67178	2.7445323	0.8720	0.8672	6.678404	23.90488
511	10.59999	2.7463302	0.8933	0.8884	6.686360	23.96907
512	10.54640	2.7488864	0.9085	0.9035	6.691811	24.02881
513	10.53259	2.7505967	0.9208	0.9157	6.692789	24.05434
514	10.54020	2.7520426	0.9147	0.9097	6.691277	24.06324
515	10.59105	2.7519481	0.9057	0.9007	6.685161	24.02889
516	10.65154	2.7485329	0.8935	0.8886	6.679232	23.95645
517	10.68735	2.7458947	0.8722	0.8675	6.675971	23.90776
518	10.70002	2.7438567	0.8693	0.8645	6.675264	23.87998
519	10.69386	2.7440858	0.8693	0.8646	6.675916	23.88620
520	10.63541	2.7460009	0.8817	0.8768	6.682207	23.94272
521	10.59213	2.7476873	0.8877	0.8829	6.686760	23.98726
522	10.57517	2.7485864	0.8878	0.8829	6.688448	24.00702
523	10.56795	2.7495914	0.8939	0.8890	6.688914	24.02142
524	10.58172	2.7501907	0.8879	0.8831	6.687003	24.01814
525	10.61137	2.7490209	0.8758	0.8710	6.683890	23.98745
526	10.64048	2.7458129	0.8727	0.8679	6.681670	23.93760
527	10.65946	2.7427708	0.8881	0.8832	6.680606	23.89603
528	10.64875	2.7419607	0.9033	0.8984	6.682231	23.89526
529	10.56721	2.7453789	0.9186	0.9136	6.690717	23.98141
530	10.50441	2.7491277	0.9187	0.9136	6.696804	24.05876
531	10.49152	2.7503796	0.9035	0.8986	6.697856	24.07931
532	10.55521	2.7475702	0.8762	0.8713	6.691279	24.01037
533	10.60528	2.7424425	0.8671	0.8624	6.687297	23.92829
534	10.61553	2.7387562	0.8611	0.8563	6.687551	23.88622
535	10.56567	2.7389210	0.8672	0.8624	6.693529	23.92038
536	10.46917	2.7429662	0.8826	0.8777	6.703600	24.02263
537	10.41066	2.7451043	0.8917	0.8868	6.709840	24.08182
538	10.38569	2.7467081	0.9009	0.8959	6.712221	24.11380
539	10.44036	2.7466547	0.8918	0.8869	6.705593	24.07717
540	10.50827	2.7439171	0.8888	0.8839	6.698460	24.00606
541	10.53872	2.7414685	0.8949	0.8900	6.695762	23.96251
542	10.54663	2.7407875	0.8950	0.8901	6.695081	23.95079
543	10.54140	2.7413863	0.8920	0.8871	6.695472	23.95997
544	10.52997	2.7425371	0.9012	0.8963	6.696389	23.97853
545	10.53048	2.7432064	0.8982	0.8933	6.696054	23.98463
546	10.53179	2.7435294	0.8922	0.8873	6.695764	23.98688
547	10.53094	2.7438288	0.8923	0.8874	6.695746	23.99032
548	10.52963	2.7440872	0.8832	0.8784	6.695799	23.99367
549	10.52707	2.7439639	0.8772	0.8724	6.696159	23.99417
550	10.52486	2.7432593	0.8741	0.8693	6.696715	23.98884
551	10.52225	2.7422553	0.8743	0.8695	6.697442	23.98090
552	10.51571	2.7416448	0.8743	0.8695	6.698484	23.97932
553	10.50453	2.7416038	0.8774	0.8725	6.699859	23.98627
554	10.49294	2.7419562	0.8805	0.8757	6.701123	23.99727
555	10.48789	2.7424729	0.8866	0.8817	6.701525	24.00556
556	10.49028	2.7428251	0.9019	0.8970	6.701092	24.00738
557	10.49482	2.7427722	0.9081	0.9031	6.700562	24.00388
558	10.49760	2.7425785	0.9142	0.9092	6.700303	24.00019
559	10.49862	2.7429073	0.9234	0.9183	6.700045	24.00268
560	10.50010	2.7434533	0.9174	0.9124	6.699643	24.00697
561	10.50197	2.7440757	0.9114	0.9064	6.699161	24.01173
562	10.50753	2.7439935	0.8902	0.8853	6.698519	24.00728
563	10.52287	2.7418737	0.8780	0.8732	6.697521	23.97682
564	10.53242	2.7396079	0.8659	0.8611	6.697286	23.94877
565	10.52418	2.7378651	0.8630	0.8582	6.698997	23.93741
566	10.47183	2.7385932	0.8721	0.8673	6.705063	23.97875
567	10.40715	2.7404659	0.8782	0.8734	6.712169	24.03937
568	10.38082	2.7420511	0.8844	0.8795	6.714726	24.07205
569	10.37658	2.7436129	0.8815	0.8766	6.714602	24.08994
570	10.42114	2.7440471	0.8845	0.8796	6.708997	24.06470
571	10.47467	2.7411462	0.8876	0.8827	6.703675	24.00148
572	10.50810	2.7373959	0.8998	0.8949	6.701142	23.94342
573	10.51804	2.7353426	0.9152	0.9102	6.700771	23.91715
574	10.51293	2.7368854	0.9245	0.9194	6.700764	23.93533
575	10.50640	2.7404709	0.9244	0.9194	6.700095	23.97412
576	10.48727	2.7430424	0.9153	0.9103	6.701369	24.01145
577	10.49993	2.7424728	0.8971	0.8922	6.700064	23.99764
578	10.52867	2.7376714	0.8728	0.8680	6.698530	23.93260
579	10.54020	2.7336415	0.8669	0.8621	6.698771	23.88631
580	10.51827	2.7317244	0.8669	0.8621	6.702219	23.88221
581	10.40392	2.7324817	0.8761	0.8713	6.715838	23.96446
582	10.30325	2.7367289	0.8914	0.8865	6.726385	24.07186
583	10.26040	2.7399566	0.9066	0.9016	6.730291	24.13149
584	10.25346	2.7420405	0.9098	0.9048	6.730278	24.15629
585	10.33015	2.7425800	0.8976	0.8927	6.720689	24.11067
586	10.42018	2.7397908	0.8856	0.8807	6.710859	24.02427
587	10.47756	2.7352197	0.8734	0.8686	6.705744	23.94250
588	10.50220	2.7316424	0.8735	0.8687	6.704208	23.89194
589	10.49084	2.7304232	0.8735	0.8687	6.706087	23.88763
590	10.41820	2.7316959	0.8827	0.8779	6.714419	23.94750
591	10.35893	2.7350742	0.9071	0.9021	6.720265	24.01910
592	10.32687	2.7374562	0.9133	0.9083	6.723200	24.06328
593	10.31223	2.7393575	0.9164	0.9114	6.724204	24.09135
594	10.35949	2.7398383	0.9074	0.9024	6.718237	24.06475
595	10.42273	2.7369155	0.8921	0.8872	6.711727	23.99486
596	10.46548	2.7333959	0.8892	0.8843	6.707961	23.93286
597	10.47268	2.7309099	0.8862	0.8813	6.708100	23.90420
598	10.44948	2.7300953	0.8863	0.8814	6.711260	23.91155
599	10.41746	2.7314263	0.8834	0.8785	6.714620	23.94538
600	10.40098	2.7341002	0.8803	0.8755	6.715533	23.98201
601	10.38943	2.7353202	0.8774	0.8726	6.716441	24.00139
602	10.37669	2.7353086	0.8745	0.8697	6.718000	24.00966
603	10.38292	2.7326695	0.8776	0.8727	6.718324	23.98008
604	10.38428	2.7297794	0.8867	0.8818	6.719345	23.95129
605	10.38269	2.7280095	0.9081	0.9031	6.720266	23.93525
606	10.35406	2.7305358	0.9325	0.9273	6.722726	23.97845
607	10.32715	2.7347519	0.9356	0.9304	6.724279	24.03693
608	10.31607	2.7380841	0.9326	0.9275	6.724259	24.07648
609	10.37330	2.7380894	0.9205	0.9155	6.717272	24.03874
610	10.43877	2.7325869	0.8901	0.8852	6.711546	23.94259
611	10.47365	2.7282900	0.8811	0.8762	6.709054	23.87835
612	10.47331	2.7271533	0.8781	0.8733	6.709560	23.86763
613	10.40579	2.7282906	0.8690	0.8643	6.717329	23.92281
614	10.34072	2.7311573	0.8722	0.8674	6.724101	23.99326
615	10.30568	2.7320722	0.8752	0.8704	6.728008	24.02521
616	10.27807	2.7324125	0.8814	0.8766	6.731247	24.04674
617	10.28490	2.7327232	0.8906	0.8857	6.730282	24.04523
618	10.30359	2.7332097	0.8876	0.8828	6.727795	24.03759
619	10.32918	2.7338311	0.8908	0.8859	6.724409	24.02670
620	10.35259	2.7328164	0.8939	0.8890	6.721967	24.00146
621	10.36622	2.7304009	0.9062	0.9012	6.721295	23.96915
622	10.37217	2.7283730	0.9214	0.9163	6.721403	23.94566
623	10.35412	2.7287540	0.9276	0.9225	6.723452	23.96120
624	10.33976	2.7310459	0.9245	0.9194	6.724265	23.99280
625	10.33224	2.7332915	0.9065	0.9015	6.724259	24.01947
626	10.34219	2.7337254	0.8851	0.8802	6.722864	24.01711
627	10.37002	2.7301253	0.8608	0.8560	6.720945	23.96402
628	10.39181	2.7264568	0.8518	0.8471	6.719790	23.91430
629	10.39107	2.7237916	0.8579	0.8532	6.720974	23.88907
630	10.30099	2.7237573	0.8824	0.8775	6.732012	23.94787
631	10.18583	2.7281343	0.9068	0.9018	6.744327	24.06629
632	10.13929	2.7321030	0.9130	0.9079	6.748394	24.13571
633	10.15369	2.7338326	0.9190	0.9140	6.745906	24.14294
634	10.24805	2.7334154	0.9039	0.8990	6.734508	24.07630
635	10.33829	2.7294809	0.8918	0.8869	6.725088	23.97866
636	10.38994	2.7258417	0.8767	0.8719	6.720271	23.90958
637	10.41146	2.7234166	0.8737	0.8689	6.718637	23.87209
638	10.39520	2.7230888	0.8829	0.8781	6.720758	23.87957
639	10.31285	2.7253269	0.8951	0.8902	6.729912	23.95524
640	10.26413	2.7276414	0.9074	0.9025	6.734926	24.00974
641	10.22589	2.7299684	0.9044	0.8994	6.738651	24.05756
642	10.25815	2.7307242	0.8893	0.8844	6.734384	24.04355
643	10.32240	2.7284027	0.8833	0.8784	6.727475	23.97870
644	10.37296	2.7247874	0.8803	0.8755	6.722779	23.91055
645	10.39130	2.7222047	0.8895	0.8846	6.721598	23.87360
646	10.34434	2.7222051	0.9048	0.8998	6.727344	23.90439
647	10.26046	2.7253273	0.9170	0.9120	6.736332	23.98975
648	10.20768	2.7280814	0.9141	0.9090	6.741666	24.05130
649	10.21388	2.7296989	0.9081	0.9031	6.740235	24.06289
650	10.27880	2.7282917	0.8868	0.8819	6.732859	24.00636
651	10.33320	2.7239034	0.8717	0.8669	6.728007	23.92812
652	10.35497	2.7208818	0.8627	0.8580	6.726586	23.88465
653	10.32523	2.7194070	0.8627	0.8580	6.730836	23.88990
654	10.21980	2.7212226	0.8750	0.8702	6.743020	23.97682
655	10.13653	2.7247075	0.8902	0.8853	6.751811	24.06569
656	10.09505	2.7270570	0.8934	0.8885	6.755937	24.11606
657	10.14992	2.7274725	0.9025	0.8975	6.749014	24.08367
658	10.23592	2.7239804	0.8995	0.8946	6.739899	23.99290
659	10.28286	2.7206424	0.9118	0.9068	6.735520	23.92966
660	10.30223	2.7186522	0.9301	0.9250	6.733967	23.89768
661	10.29670	2.7202267	0.9302	0.9251	6.733996	23.91654
662	10.28145	2.7229317	0.9242	0.9191	6.734748	23.95273
663	10.27411	2.7244369	0.9151	0.9100	6.735026	23.97213
664	10.27716	2.7241557	0.8909	0.8860	6.734768	23.96741
665	10.29376	2.7210990	0.8696	0.8648	6.733995	23.92692
666	10.30799	2.7188160	0.8514	0.8468	6.733191	23.89551
667	10.30749	2.7177450	0.8454	0.8408	6.733695	23.88549
668	10.26102	2.7183306	0.8546	0.8499	6.739155	23.92167
669	10.20295	2.7203739	0.8638	0.8591	6.745442	23.97971
670	10.17626	2.7217909	0.8791	0.8743	6.748137	24.01108
671	10.15352	2.7229563	0.9066	0.9016	6.750449	24.03742
672	10.16258	2.7231494	0.9310	0.9259	6.749255	24.03329
673	10.18425	2.7232840	0.9463	0.9411	6.746535	24.02026
674	10.20554	2.7235883	0.9494	0.9442	6.743792	24.00914
675	10.22780	2.7237638	0.9403	0.9351	6.740986	23.99614
676	10.24974	2.7232014	0.9221	0.9171	6.738526	23.97623
677	10.26396	2.7213100	0.9070	0.9020	6.737564	23.94856
678	10.26988	2.7186525	0.8857	0.8808	6.737935	23.91895
679	10.25679	2.7171194	0.8736	0.8688	6.740176	23.91272
680	10.20126	2.7178045	0.8646	0.8599	6.746716	23.95591
681	10.14728	2.7199704	0.8647	0.8600	6.752459	24.01257
682	10.11950	2.7218031	0.8677	0.8630	6.755117	24.04876
683	10.11230	2.7227341	0.8679	0.8631	6.755615	24.06258
684	10.14435	2.7221249	0.8709	0.8662	6.751923	24.03543
685	10.18318	2.7198121	0.8892	0.8844	6.748107	23.98730
686	10.20177	2.7180620	0.9107	0.9057	6.746547	23.95806
687	10.20188	2.7182902	0.9290	0.9239	6.746439	23.96019
688	10.19940	2.7202100	0.9381	0.9329	6.745948	23.98044
689	10.20092	2.7219897	0.9291	0.9240	6.745022	23.99669
690	10.20667	2.7219370	0.9261	0.9210	6.744338	23.99239
691	10.22893	2.7192732	0.9201	0.9150	6.742707	23.95190
692	10.24839	2.7174998	0.9080	0.9030	6.741051	23.92192
693	10.25690	2.7161540	0.9051	0.9001	6.740561	23.90329
694	10.25403	2.7160195	0.8900	0.8851	6.740970	23.90389
695	10.24630	2.7169088	0.8869	0.8820	6.741552	23.91758
696	10.24269	2.7177456	0.8719	0.8671	6.741648	23.92806
697	10.23863	2.7183308	0.8657	0.8610	6.741905	23.93640
698	10.23169	2.7184655	0.8598	0.8551	6.742701	23.94227
699	10.22454	2.7178043	0.8537	0.8490	6.743855	23.94058
700	10.21890	2.7165814	0.8629	0.8581	6.745054	23.93244
701	10.21360	2.7157273	0.8844	0.8795	6.746060	23.92765
702	10.20481	2.7157508	0.9180	0.9129	6.747132	23.93365
703	10.19219	2.7168391	0.9363	0.9312	6.748233	23.95251
704	10.18645	2.7183313	0.9484	0.9432	6.748321	23.97076
705	10.18758	2.7198355	0.9608	0.9555	6.747558	23.98460
706	10.20599	2.7200812	0.9518	0.9465	6.745191	23.97484
707	10.23508	2.7179271	0.9305	0.9253	6.742509	23.93481
708	10.25865	2.7156450	0.8971	0.8921	6.740557	23.89722
709	10.26661	2.7141650	0.8788	0.8740	6.740191	23.87768
710	10.26379	2.7135217	0.8667	0.8619	6.740804	23.87331
711	10.24997	2.7133113	0.8637	0.8590	6.742589	23.88035
712	10.19231	2.7139960	0.8699	0.8651	6.749398	23.92489
713	10.15240	2.7153476	0.8762	0.8713	6.753751	23.96431
714	10.14553	2.7173661	0.8730	0.8682	6.753757	23.98843
715	10.14801	2.7190866	0.8732	0.8684	6.752737	24.00350
716	10.17192	2.7184134	0.8793	0.8745	6.750073	23.98117
717	10.20047	2.7146511	0.8885	0.8836	6.748121	23.92586
718	10.21738	2.7121186	0.9068	0.9018	6.747092	23.89019
719	10.21439	2.7117561	0.9253	0.9203	6.747610	23.88864
720	10.20447	2.7148675	0.9436	0.9384	6.747540	23.92530
721	10.19569	2.7187994	0.9527	0.9475	6.746990	23.96921
722	10.19732	2.7203212	0.9438	0.9386	6.746158	23.98289
723	10.23017	2.7176580	0.9195	0.9144	6.743223	23.93543
724	10.25978	2.7135393	0.8890	0.8841	6.741289	23.87610
725	10.26209	2.7110307	0.8769	0.8721	6.742042	23.85032
726	10.23277	2.7099845	0.8649	0.8602	6.746082	23.85943
727	10.14553	2.7111019	0.8680	0.8632	6.756363	23.92762
728	10.08185	2.7138449	0.8742	0.8694	6.763078	23.99632
729	10.04425	2.7157522	0.8834	0.8786	6.766925	24.03978
730	10.03168	2.7173379	0.8895	0.8846	6.767814	24.06356
731	10.07304	2.7174077	0.9048	0.8998	6.762679	24.03680
732	10.12248	2.7146225	0.9049	0.8999	6.757741	23.97701
733	10.15977	2.7120489	0.9080	0.9030	6.754215	23.92742
734	10.17288	2.7109555	0.9173	0.9122	6.753054	23.90818
735	10.17434	2.7116454	0.9203	0.9152	6.752587	23.91390
736	10.17722	2.7138207	0.9174	0.9123	6.751330	23.93311
737	10.17249	2.7154761	0.9114	0.9064	6.751224	23.95229
738	10.17102	2.7159675	0.9113	0.9063	6.751200	23.95802
739	10.18279	2.7141131	0.8872	0.8823	6.750521	23.93229
740	10.19056	2.7116394	0.8720	0.8672	6.750591	23.90319
741	10.19219	2.7096634	0.8659	0.8612	6.751210	23.88296
742	10.19022	2.7084885	0.8752	0.8703	6.751941	23.87287
743	10.16376	2.7084070	0.8965	0.8916	6.755237	23.88946
744	10.09730	2.7102546	0.9209	0.9159	6.762669	23.95119
745	10.06400	2.7128802	0.9302	0.9251	6.765686	23.99873
746	10.05249	2.7156468	0.9363	0.9312	6.765951	24.03327
747	10.08646	2.7164246	0.9212	0.9162	6.761433	24.01834
748	10.14025	2.7127742	0.9091	0.9041	6.756320	23.94733
749	10.17874	2.7091433	0.8910	0.8861	6.753085	23.88676
750	10.19214	2.7076002	0.8818	0.8770	6.752074	23.86300
751	10.14716	2.7077876	0.8819	0.8771	6.757541	23.89438
752	10.08095	2.7099391	0.8881	0.8832	6.764819	23.95893
753	10.05300	2.7116757	0.8944	0.8895	6.767549	23.99430
754	10.03482	2.7133366	0.9004	0.8955	6.769101	24.02251
755	10.05760	2.7135995	0.9005	0.8956	6.766176	24.00997
756	10.09281	2.7117279	0.8975	0.8926	6.762609	23.96849
757	10.11983	2.7095588	0.8977	0.8927	6.760177	23.92957
758	10.12585	2.7085476	0.8946	0.8897	6.759856	23.91579
759	10.11388	2.7076827	0.8917	0.8868	6.761694	23.91528
760	10.09438	2.7075777	0.8978	0.8929	6.764147	23.92711
761	10.07910	2.7086356	0.9101	0.9051	6.765593	23.94747
762	10.07708	2.7100385	0.9223	0.9172	6.765257	23.96244
763	10.07321	2.7111902	0.9285	0.9234	6.765255	23.97620
764	10.07798	2.7113831	0.9224	0.9173	6.764585	23.97492
765	10.09269	2.7105762	0.9164	0.9114	6.763104	23.95736
766	10.10208	2.7086471	0.9044	0.8995	6.762750	23.93242
767	10.10309	2.7074140	0.8983	0.8933	6.763139	23.91978
768	10.10449	2.7070400	0.8984	0.8934	6.763121	23.91522
769	10.10101	2.7073614	0.8955	0.8905	6.763418	23.92064
770	10.09792	2.7080394	0.8864	0.8815	6.763517	23.92926
771	10.09820	2.7083783	0.8925	0.8876	6.763341	23.93237
772	10.09747	2.7084601	0.8926	0.8876	6.763397	23.93365
773	10.09578	2.7084309	0.9018	0.8968	6.763617	23.93447
774	10.09415	2.7057839	0.8958	0.8909	6.764923	23.90982
775	10.06265	2.6809493	0.9049	0.9000	6.779199	23.68919
776	9.88765	2.6699948	0.8990	0.8940	6.805620	23.69705
777	9.68235	2.6689443	0.9112	0.9062	6.831821	23.82188
778	9.53857	2.6690676	0.9082	0.9032	6.849895	23.91845
779	9.45582	2.6694694	0.9175	0.9125	6.860185	23.97756
780	9.41087	2.6698768	0.9205	0.9155	6.865701	24.01164
781	9.38615	2.6699991	0.9237	0.9186	6.868782	24.02940
782	9.37248	2.6701039	0.9176	0.9125	6.870471	24.03960
783	9.36459	2.6702900	0.9025	0.8976	6.871390	24.04674
784	9.35980	2.6702668	0.8874	0.8825	6.872008	24.04973
785	9.35666	2.6702901	0.8752	0.8704	6.872396	24.05207
786	9.35462	2.6703424	0.8784	0.8735	6.872633	24.05396
787	9.35335	2.6701273	0.8846	0.8797	6.872887	24.05268
788	9.35236	2.6697610	0.8878	0.8829	6.873172	24.04971
789	9.35203	2.6695982	0.9091	0.9041	6.873285	24.04832
790	9.35192	2.6697087	0.9182	0.9132	6.873251	24.04948
791	9.35203	2.6696855	0.9122	0.9072	6.873247	24.04918
792	9.35247	2.6695517	0.9093	0.9043	6.873249	24.04756
793	9.35258	2.6695459	0.8942	0.8893	6.873238	24.04743
794	9.35225	2.6693657	0.8942	0.8893	6.873358	24.04587
795	9.35170	2.6697610	0.8973	0.8924	6.873256	24.05015
796	9.35181	2.6697087	0.9126	0.9075	6.873265	24.04956
797	9.35186	2.6697087	0.9218	0.9167	6.873258	24.04952
798	9.35164	2.6696564	0.9310	0.9258	6.873309	24.04914
799	9.35219	2.6696855	0.9159	0.9108	6.873226	24.04907
800	9.35274	2.6694587	0.9006	0.8957	6.873255	24.04646
801	9.35291	2.6696040	0.8856	0.8807	6.873170	24.04779
802	9.35335	2.6696273	0.8765	0.8717	6.873104	24.04773
803	9.35357	2.6696854	0.8735	0.8687	6.873051	24.04816
804	9.35351	2.6696854	0.8828	0.8779	6.873058	24.04819
805	9.35313	2.6697087	0.8979	0.8930	6.873097	24.04867
806	9.35252	2.6697087	0.9012	0.8962	6.873174	24.04908
807	9.35186	2.6697087	0.9012	0.8962	6.873258	24.04952
808	9.35120	2.6696273	0.8983	0.8934	6.873377	24.04916
809	9.35054	2.6695692	0.8953	0.8904	6.873486	24.04903
810	9.35015	2.6694704	0.9014	0.8965	6.873578	24.04831
811	9.34999	2.6695227	0.9168	0.9117	6.873577	24.04893
812	9.34993	2.6694878	0.9351	0.9299	6.873599	24.04862
813	9.35021	2.6694181	0.9838	0.9784	6.873595	24.04773
814	9.35092	2.6691797	1.0782	1.0722	6.873609	24.04485
815	9.35247	2.6692088	1.2153	1.2086	6.873403	24.04406
816	9.35379	2.6691798	1.3555	1.3481	6.873250	24.04284
817	9.35500	2.6691042	1.5228	1.5144	6.873131	24.04122
818	9.35555	2.6692903	1.7056	1.6962	6.872983	24.04263
819	9.35588	2.6690752	1.8944	1.8840	6.873037	24.04021
820	9.35561	2.6687091	2.0861	2.0747	6.873234	24.03671
821	9.35533	2.6685696	2.2841	2.2715	6.873333	24.03544
822	9.35384	2.6684709	2.4911	2.4774	6.873567	24.03539
823	9.35175	2.6684825	2.7012	2.6864	6.873831	24.03684
824	9.34993	2.6699709	2.9021	2.8862	6.873419	24.05273
825	9.34877	2.6722271	3.1213	3.1041	6.872589	24.07578
826	9.34784	2.6728204	3.3345	3.3161	6.872453	24.08221
827	9.34723	2.6732044	3.5506	3.5311	6.872366	24.08635
828	9.34690	2.6735069	3.7638	3.7431	6.872280	24.08950
829	9.34663	2.6752231	3.9859	3.9639	6.871573	24.10661
830	9.34608	2.6768932	4.2053	4.1821	6.870920	24.12345
831	9.34547	2.6774171	4.4366	4.4122	6.870773	24.12897
832	9.34448	2.6785463	4.6588	4.6331	6.870412	24.14075
833	9.34371	2.6806480	4.8810	4.8541	6.869599	24.16202
834	9.34233	2.6815156	5.1003	5.0723	6.869400	24.17148
835	9.34117	2.6819466	5.3073	5.2781	6.869363	24.17646
836	9.34040	2.6833736	5.5235	5.4931	6.868844	24.19105
837	9.33913	2.6855291	5.7275	5.6960	6.868070	24.21320
838	9.33743	2.6875104	5.9467	5.9139	6.867429	24.23393
839	9.33555	2.6886237	6.1537	6.1199	6.867185	24.24616
840	9.33390	2.6893466	6.3638	6.3287	6.867083	24.25438
841	9.33263	2.6908624	6.5861	6.5498	6.866588	24.27019
842	9.33131	2.6924486	6.7961	6.7586	6.866069	24.28675
843	9.32960	2.6928044	7.0275	6.9888	6.866134	24.29136
844	9.32823	2.6945310	7.2407	7.2008	6.865561	24.30934
845	9.32669	2.6988783	7.4598	7.4187	6.863869	24.35345
846	9.32393	2.7031755	7.6699	7.6276	6.862351	24.39790
847	9.31986	2.7108537	7.8953	7.8518	6.859531	24.47684
848	9.31452	2.7165620	8.1115	8.0668	6.857725	24.53713
849	9.30912	2.7213262	8.3306	8.2847	6.856335	24.58809
850	9.30334	2.7345166	8.5438	8.4967	6.851327	24.72316
851	9.29520	2.7536961	8.7631	8.7148	6.844007	24.91962
852	9.28221	2.7767457	8.9761	8.9266	6.835601	25.15834
853	9.26451	2.8030672	9.1892	9.1386	6.826347	25.43353
854	9.24395	2.8218996	9.3963	9.3445	6.820694	25.63643
855	9.22247	2.8554063	9.6064	9.5534	6.808739	25.98749
856	9.19683	2.8897236	9.8134	9.7592	6.796916	26.35072
857	9.16874	2.9166997	10.0264	9.9711	6.788568	26.64290
858	9.14121	2.9497805	10.2306	10.1742	6.777454	26.99709
859	9.11300	2.9651101	10.4376	10.3800	6.774162	27.17330
860	9.09005	2.9692511	10.6537	10.5949	6.775122	27.23260
861	9.07479	2.9711139	10.8699	10.8099	6.776153	27.26304
862	9.06532	2.9723056	11.0770	11.0158	6.776777	27.28227
863	9.05909	2.9734309	11.2901	11.2277	6.777040	27.29836
864	9.05520	2.9748225	11.4971	11.4337	6.776901	27.31535
865	9.05323	2.9783873	11.7011	11.6365	6.775577	27.35290
866	9.05088	2.9910190	11.9052	11.8394	6.770317	27.48269
867	9.04011	3.0101713	12.1091	12.0423	6.763204	27.68529
868	9.01546	3.0338731	12.3101	12.2421	6.755745	27.94532
869	8.97648	3.0507335	12.5110	12.4419	6.752983	28.14761
870	8.93153	3.0618956	12.7150	12.6448	6.753421	28.29703
871	8.88887	3.0674950	12.9251	12.8537	6.756031	28.38817
872	8.85338	3.0715730	13.1200	13.0475	6.758454	28.45820
873	8.82493	3.0743726	13.3210	13.2474	6.760604	28.50960
874	8.80417	3.0759475	13.5218	13.4471	6.762381	28.54235
875	8.78988	3.0782213	13.7228	13.6469	6.763076	28.57709
876	8.77793	3.0829607	13.9237	13.8468	6.762394	28.63527
877	8.76354	3.0910540	14.1339	14.0558	6.760509	28.72992
878	8.74770	3.0942408	14.3288	14.2496	6.760977	28.77543
879	8.73571	3.0951623	14.5327	14.4524	6.761995	28.79456
880	8.72898	3.0963970	14.7276	14.6462	6.762247	28.81264
881	8.72611	3.0979637	14.9377	14.8551	6.761894	28.83100
882	8.72616	3.0996658	15.1356	15.0519	6.761132	28.84839
883	8.72741	3.1003726	15.3456	15.2607	6.760673	28.85456
884	8.72898	3.1011040	15.5436	15.4576	6.760163	28.86072
885	8.73055	3.1017863	15.7415	15.6544	6.759676	28.86638
886	8.73164	3.1029052	15.9455	15.8573	6.759052	28.87692
887	8.73223	3.1040611	16.1404	16.0511	6.758470	28.88824
888	8.73283	3.1052602	16.3352	16.2448	6.757868	28.90001
889	8.73424	3.1074190	16.5331	16.4416	6.756742	28.92099
890	8.73527	3.1094184	16.7342	16.6415	6.755733	28.94064
891	8.73446	3.1103722	16.9320	16.8383	6.755408	28.95103
892	8.73039	3.1112584	17.1331	17.0382	6.755498	28.96339
893	8.72605	3.1122925	17.3249	17.2290	6.755555	28.97750
894	8.72329	3.1140653	17.5349	17.4378	6.755096	28.99793
895	8.72101	3.1167007	17.7297	17.6315	6.754194	29.02684
896	8.71813	3.1197927	17.9276	17.8283	6.753160	29.06096
897	8.71336	3.1230523	18.1164	18.0161	6.752274	29.09837
898	8.70333	3.1307226	18.3175	18.2160	6.750042	29.18557
899	8.69315	3.1352765	18.5153	18.4128	6.749216	29.24084
900	8.68827	3.1366531	18.7041	18.6005	6.749180	29.25899
901	8.68469	3.1387090	18.8776	18.7731	6.748687	29.28308
902	8.67456	3.1395490	19.0604	18.9548	6.749510	29.30005
903	8.65962	3.1399073	19.2551	19.1485	6.751117	29.31604
904	8.64798	3.1399940	19.4440	19.3363	6.752455	29.32650
905	8.64040	3.1405314	19.6297	19.5209	6.753112	29.33825
906	8.63678	3.1415197	19.8246	19.7147	6.753101	29.35139
907	8.63445	3.1434039	20.0133	19.9024	6.752536	29.37271
908	8.62423	3.1461785	20.2082	20.0962	6.752504	29.40980
909	8.59935	3.1477734	20.3939	20.2809	6.754726	29.44691
910	8.56893	3.1488494	20.5888	20.4747	6.757837	29.48332
911	8.54215	3.1496040	20.7806	20.6654	6.760663	29.51342
912	8.52504	3.1499938	20.9725	20.8563	6.762512	29.53167
913	8.51549	3.1502907	21.1613	21.0440	6.763510	29.54266
914	8.50950	3.1505629	21.3469	21.2286	6.764098	29.55041
915	8.50465	3.1507980	21.5356	21.4162	6.764569	29.55684
916	8.49845	3.1516082	21.7246	21.6041	6.764940	29.57036
917	8.48702	3.1526041	21.9072	21.7857	6.765845	29.59020
918	8.47052	3.1534084	22.0962	21.9736	6.767434	29.61230
919	8.45135	3.1551841	22.2818	22.1582	6.768902	29.64677
920	8.42647	3.1561434	22.4675	22.3429	6.771413	29.67759
921	8.40317	3.1569234	22.6624	22.5367	6.773819	29.70524
922	8.37844	3.1587866	22.8511	22.7244	6.775904	29.74543
923	8.34684	3.1600559	23.0522	22.9243	6.779071	29.78527
924	8.31393	3.1599016	23.2410	23.1120	6.783042	29.81144
925	8.28040	3.1596358	23.4297	23.2997	6.787140	29.83700
926	8.24877	3.1605648	23.6216	23.4905	6.790471	29.87347
927	8.21936	3.1629180	23.8042	23.6721	6.792887	29.92303
928	8.19367	3.1644542	23.9838	23.8507	6.795236	29.96093
929	8.17751	3.1678308	24.1635	24.0293	6.795609	30.01003
930	8.17035	3.1703656	24.3402	24.2050	6.795300	30.04265
931	8.16607	3.1726594	24.5198	24.3836	6.794759	30.07029
932	8.16099	3.1748359	24.7086	24.5713	6.794366	30.09739
933	8.15335	3.1760827	24.9035	24.7651	6.794704	30.11694
934	8.14394	3.1784091	25.0831	24.9438	6.794754	30.14935
935	8.13111	3.1812885	25.2781	25.1377	6.794954	30.19052
936	8.11274	3.1836538	25.4759	25.3344	6.796047	30.23111
937	8.09074	3.1860507	25.6950	25.5522	6.797553	30.27518
938	8.06353	3.1880571	25.9112	25.7673	6.799856	30.31971
939	8.03794	3.1891507	26.0999	25.9549	6.802387	30.35330
940	8.01833	3.1897288	26.2918	26.1457	6.804448	30.37631
941	7.99873	3.1885363	26.4897	26.3425	6.807327	30.38065
942	7.97600	3.1870521	26.6785	26.5303	6.810715	30.38464
943	7.95371	3.1855061	26.8702	26.7209	6.814083	30.38760
944	7.93281	3.1832278	27.0470	26.8966	6.817627	30.38162
945	7.90841	3.1814714	27.2417	27.0903	6.821349	30.38417
946	7.88409	3.1813538	27.4368	27.2842	6.824304	30.40399
947	7.86763	3.1815651	27.6285	27.4749	6.826170	30.42047
948	7.85909	3.1821611	27.8265	27.6718	6.826914	30.43413
949	7.85442	3.1829868	28.0213	27.8655	6.827089	30.44685
950	7.84588	3.1863894	28.2254	28.0684	6.826524	30.49024
951	7.81984	3.1877250	28.4293	28.2712	6.829005	30.52706
952	7.78910	3.1893094	28.6363	28.4770	6.831930	30.57067
953	7.75881	3.1910991	28.8373	28.6769	6.834706	30.61614
954	7.72971	3.1921994	29.0415	28.8799	6.837664	30.65331
955	7.70523	3.1931381	29.2453	29.0826	6.840147	30.68475
956	7.68573	3.1953513	29.4463	29.2825	6.841436	30.72540
957	7.66307	3.1964894	29.6412	29.4762	6.843608	30.75743
958	7.63730	3.1970742	29.8481	29.6820	6.846411	30.78635
959	7.61509	3.1974351	30.0491	29.8819	6.848896	30.80977
960	7.59896	3.1977401	30.2502	30.0818	6.850684	30.82723
961	7.58741	3.1977714	30.4571	30.2875	6.852052	30.83770
962	7.58014	3.1978648	30.6732	30.5024	6.852881	30.84505
963	7.57529	3.1979893	30.8833	30.7114	6.853406	30.85059
964	7.57155	3.1979583	31.0966	30.9234	6.853872	30.85349
965	7.56944	3.1979273	31.3128	31.1384	6.854143	30.85493
966	7.56781	3.1979273	31.5227	31.3471	6.854342	30.85628
967	7.56675	3.1979585	31.7329	31.5562	6.854457	30.85746
968	7.56607	3.1979586	31.9490	31.7710	6.854544	30.85797
969	7.56549	3.1979276	32.1653	31.9861	6.854632	30.85806
970	7.56523	3.1978965	32.3845	32.2040	6.854682	30.85786
971	7.56491	3.1978966	32.6098	32.4280	6.854724	30.85804
972	7.56475	3.1979278	32.8167	32.6338	6.854733	30.85842
973	7.56438	3.1983507	33.0360	32.8518	6.854581	30.86317
974	7.56333	3.1994206	33.2461	33.0608	6.854205	30.87544
975	7.56091	3.2010069	33.4592	33.2727	6.853747	30.89445
976	7.55727	3.2018531	33.6784	33.4906	6.853785	30.90662
977	7.55395	3.2022887	33.9008	33.7118	6.853980	30.91413
978	7.55143	3.2028115	34.1107	33.9205	6.854038	30.92187
979	7.54964	3.2033903	34.3332	34.1417	6.853982	30.92955
980	7.54816	3.2039691	34.5646	34.3718	6.853889	30.93695
981	7.54674	3.2044297	34.7929	34.5988	6.853845	30.94304
982	7.54548	3.2046414	35.0211	34.8258	6.853900	30.94633
983	7.54442	3.2051332	35.2799	35.0831	6.853798	30.95241
984	7.54353	3.2055627	35.5450	35.3467	6.853707	30.95768
985	7.54263	3.2059612	35.7701	35.5706	6.853629	30.96263
986	7.54190	3.2066958	35.9954	35.7945	6.853373	30.97105
987	7.54090	3.2067893	36.2267	36.0245	6.853453	30.97283
988	7.54011	3.2068765	36.4522	36.2487	6.853511	30.97437
989	7.53974	3.2068766	36.6743	36.4696	6.853559	30.97460
990	7.53932	3.2069700	36.9119	36.7058	6.853570	30.97587
991	7.53921	3.2070635	37.1341	36.9268	6.853542	30.97686
992	7.53921	3.2089252	37.3746	37.1659	6.852665	30.99666
993	7.53942	3.2115908	37.6061	37.3961	6.851381	31.02488
994	7.54037	3.2126312	37.8404	37.6291	6.850780	31.03506
995	7.54179	3.2129739	38.0749	37.8623	6.850453	31.03735
996	7.54269	3.2139521	38.3155	38.1014	6.849887	31.04691
997	7.54390	3.2153355	38.5559	38.3405	6.849092	31.06051
998	7.54558	3.2150863	38.7873	38.5706	6.849014	31.05624
999	7.54700	3.2166818	39.0340	38.8159	6.848094	31.07192
1000	7.54848	3.2179098	39.2622	39.0428	6.847341	31.08364
1001	7.54974	3.2180968	39.4997	39.2790	6.847107	31.08440
1002	7.54864	3.2179099	39.7221	39.5001	6.847332	31.08329
1003	7.54211	3.2178228	39.9595	39.7361	6.848155	31.08809
1004	7.53353	3.2180972	40.1788	39.9541	6.849052	31.09861
1005	7.52731	3.2184028	40.4162	40.1903	6.849651	31.10733
1006	7.52410	3.2190201	40.6416	40.4144	6.849746	31.11671
1007	7.52316	3.2192010	40.8759	40.6473	6.849777	31.11939
1008	7.52263	3.2194193	41.1074	40.8775	6.849741	31.12210
1009	7.52258	3.2194505	41.3357	41.1045	6.849737	31.12238
1010	7.52247	3.2196314	41.5762	41.3436	6.849669	31.12430
1011	7.52279	3.2197873	41.8198	41.5859	6.849562	31.12557
1012	7.52305	3.2198498	42.0514	41.8161	6.849506	31.12590
1013	7.52342	3.2199995	42.2919	42.0552	6.849396	31.12707
1014	7.52405	3.2203113	42.5231	42.2852	6.849177	31.12974
1015	7.52489	3.2203987	42.7514	42.5121	6.849040	31.12981
1016	7.52547	3.2204611	42.9891	42.7485	6.848946	31.12986
1017	7.52553	3.2205235	43.2173	42.9754	6.848915	31.13037
1018	7.52579	3.2205548	43.4427	43.1995	6.848873	31.13037
1019	7.52584	3.2206484	43.6709	43.4264	6.848827	31.13122
1020	7.52600	3.2207731	43.8933	43.6475	6.848754	31.13232
1021	7.52626	3.2208356	44.1095	43.8625	6.848697	31.13265
1022	7.52663	3.2208917	44.3347	44.0864	6.848631	31.13282
1023	7.52653	3.2209417	44.5602	44.3106	6.848624	31.13335
1024	7.52663	3.2210166	44.7853	44.5344	6.848581	31.13396
1025	7.52658	3.2210479	45.0168	44.7646	6.848577	31.13424
1026	7.52631	3.2210791	45.2543	45.0008	6.848598	31.13470
1027	7.52584	3.2212039	45.4978	45.2429	6.848600	31.13635
1028	7.52484	3.2212352	45.7416	45.4852	6.848709	31.13747
1029	7.52384	3.2211729	45.9788	45.7211	6.848863	31.13759
1030	7.52337	3.2212665	46.2255	45.9664	6.848879	31.13891
1031	7.52253	3.2212915	46.4539	46.1935	6.848972	31.13983
1032	7.52089	3.2212916	46.6791	46.4175	6.849171	31.14119
1033	7.52005	3.2213229	46.9045	46.6415	6.849261	31.14218
1034	7.51937	3.2213230	47.1388	46.8745	6.849347	31.14269
1035	7.51884	3.2213230	47.3612	47.0956	6.849414	31.14306
1036	7.51753	3.2212919	47.5743	47.3074	6.849590	31.14381
1037	7.51584	3.2212671	47.7905	47.5224	6.849807	31.14496
1038	7.51447	3.2212672	48.0128	47.7434	6.849974	31.14609
1039	7.51321	3.2212361	48.2380	47.9674	6.850143	31.14678
1040	7.51221	3.2212673	48.4634	48.1915	6.850252	31.14791
1041	7.51142	3.2212924	48.6916	48.4184	6.850339	31.14879
1042	7.51063	3.2213236	48.9231	48.6486	6.850423	31.14972
1043	7.51016	3.2214172	49.1576	48.8817	6.850439	31.15105
1044	7.50963	3.2215420	49.3890	49.1118	6.850447	31.15275
1045	7.50879	3.2217230	49.6204	49.3418	6.850466	31.15534
1046	7.50732	3.2219164	49.8397	49.5599	6.850554	31.15863
1047	7.50579	3.2220661	50.0618	49.7807	6.850669	31.16150
1048	7.50295	3.2223095	50.2840	50.0016	6.850897	31.16656
1049	7.49843	3.2224031	50.5003	50.2167	6.851395	31.17153
1050	7.49275	3.2222785	50.7166	50.4318	6.852136	31.17519
1051	7.48386	3.2221602	50.9387	50.6526	6.853255	31.18180
1052	7.47256	3.2215118	51.1609	50.8735	6.854915	31.18490
1053	7.45496	3.2210506	51.3894	51.1007	6.857238	31.19567
1054	7.43474	3.2202839	51.6178	51.3278	6.860020	31.20553
1055	7.40755	3.2196358	51.8582	51.5668	6.863580	31.22293
1056	7.37738	3.2193618	52.0987	51.8060	6.867319	31.24706
1057	7.34971	3.2190255	52.3454	52.0512	6.870794	31.26830
1058	7.32241	3.2188389	52.5950	52.2994	6.874154	31.29082
1059	7.29723	3.2187457	52.8325	52.5355	6.877218	31.31248
1060	7.27793	3.2187148	53.0699	52.7716	6.879550	31.32951
1061	7.26412	3.2186901	53.3045	53.0048	6.881221	31.34164
1062	7.25319	3.2186591	53.5358	53.2347	6.882550	31.35110
1063	7.24441	3.2186281	53.7611	53.4588	6.883622	31.35863
1064	7.23741	3.2185970	54.0048	53.7011	6.884482	31.36453
1065	7.23171	3.2185660	54.2330	53.9280	6.885184	31.36926
1066	7.22732	3.2185350	54.4615	54.1551	6.885730	31.37280
1067	7.22382	3.2184790	54.6991	54.3914	6.886182	31.37527
1068	7.22084	3.2183793	54.9273	54.6182	6.886592	31.37679
1069	7.21698	3.2181675	55.1647	54.8543	6.887163	31.37790
1070	7.20930	3.2180118	55.4114	55.0996	6.888164	31.38308
1071	7.19943	3.2179185	55.6731	55.3598	6.889399	31.39091
1072	7.18957	3.2177379	55.9444	55.6295	6.890676	31.39780
1073	7.17730	3.2174887	56.1786	55.8624	6.892273	31.40615
1074	7.16254	3.2173394	56.4283	56.1106	6.894124	31.41785
1075	7.14945	3.2173708	56.6688	56.3497	6.895687	31.42999
1076	7.14001	3.2173398	56.9124	56.5919	6.896841	31.43813
1077	7.13448	3.2173399	57.1438	56.8220	6.897510	31.44306
1078	7.13073	3.2173712	57.3845	57.0613	6.897951	31.44671
1079	7.12833	3.2173401	57.6218	57.2972	6.898259	31.44845
1080	7.12625	3.2171532	57.8684	57.5425	6.898605	31.44821
1081	7.12083	3.2169726	58.1121	57.7847	6.899350	31.45108
1082	7.10900	3.2167858	58.3557	58.0269	6.900868	31.45973
1083	7.09416	3.2167237	58.6052	58.2750	6.902689	31.47248
1084	7.07963	3.2166928	58.8397	58.5081	6.904457	31.48529
1085	7.06766	3.2166680	59.0865	58.7535	6.905916	31.49584
1086	7.05819	3.2166620	59.3299	58.9955	6.907064	31.50431
1087	7.05065	3.2166933	59.5705	59.2347	6.907962	31.51144
1088	7.04456	3.2166934	59.8263	59.4890	6.908701	31.51688
1089	7.03879	3.2166312	60.0667	59.7280	6.909431	31.52138
1090	7.03286	3.2165130	60.3194	59.9792	6.910209	31.52540
1091	7.02724	3.2159272	60.5630	60.2214	6.911176	31.52407
1092	7.01955	3.2154974	60.8157	60.4727	6.912318	31.52632
1093	7.01045	3.2152545	61.0684	60.7239	6.913538	31.53189
1094	6.99876	3.2143013	61.3151	60.9692	6.915418	31.53212
1095	6.97814	3.2136599	61.5708	61.2234	6.918225	31.54392
1096	6.94845	3.2137226	61.8174	61.4686	6.921786	31.57170
1097	6.91976	3.2139036	62.0792	61.7289	6.925169	31.59989
1098	6.89799	3.2140597	62.3137	61.9620	6.927730	31.62149
1099	6.88177	3.2143653	62.5634	62.2102	6.929547	31.63963
1100	6.86416	3.2143655	62.8221	62.4675	6.931683	31.65572
1101	6.84780	3.2143658	63.0628	62.7068	6.933668	31.67069
1102	6.83569	3.2143099	63.3155	62.9581	6.935167	31.68113
1103	6.82736	3.2142727	63.5620	63.2031	6.936199	31.68829
1104	6.82053	3.2141233	63.8239	63.4634	6.937105	31.69284
1105	6.81013	3.2139365	64.0797	63.7177	6.938462	31.70028
1106	6.79762	3.2138121	64.3292	63.9658	6.940045	31.71036
1107	6.78651	3.2136316	64.5913	64.2264	6.941487	31.71853
1108	6.77622	3.2136007	64.8285	64.4622	6.942754	31.72759
1109	6.76826	3.2135697	65.0721	64.7044	6.943740	31.73449
1110	6.76243	3.2135387	65.3098	64.9408	6.944468	31.73944
1111	6.75804	3.2135699	65.5442	65.1738	6.944990	31.74374
1112	6.75483	3.2136323	65.7817	65.4099	6.945353	31.74727
1113	6.75179	3.2135078	66.0223	65.6491	6.945789	31.74862
1114	6.74750	3.2133896	66.2599	65.8853	6.946373	31.75118
1115	6.74275	3.2132028	66.5186	66.1425	6.947047	31.75341
1116	6.73790	3.2131718	66.7804	66.4028	6.947657	31.75744
1117	6.73387	3.2133900	67.0178	66.6388	6.948043	31.76345
1118	6.73108	3.2133402	67.2644	66.8840	6.948411	31.76537
1119	6.72897	3.2131098	67.5080	67.1262	6.948787	31.76469
1120	6.72680	3.2130227	67.7548	67.3715	6.949099	31.76563
1121	6.72468	3.2130228	67.9800	67.5954	6.949361	31.76749
1122	6.72303	3.2131101	68.2267	67.8407	6.949523	31.76986
1123	6.72143	3.2130479	68.4733	68.0858	6.949753	31.77055
1124	6.72035	3.2131414	68.7139	68.3250	6.949844	31.77246
1125	6.71937	3.2132038	68.9452	68.5550	6.949937	31.77395
1126	6.71761	3.2131727	69.1888	68.7972	6.950170	31.77512
1127	6.71575	3.2132040	69.4172	69.0242	6.950385	31.77707
1128	6.71385	3.2132664	69.6642	69.2698	6.950591	31.77941
1129	6.71204	3.2132976	69.8982	69.5024	6.950800	31.78132
1130	6.71018	3.2133600	70.1450	69.7478	6.951000	31.78361
1131	6.70900	3.2133913	70.3885	69.9898	6.951134	31.78494
1132	6.70812	3.2134225	70.6321	70.2320	6.951230	31.78598
1133	6.70734	3.2134724	70.8726	70.4712	6.951305	31.78713
1134	6.70621	3.2135099	71.1191	70.7162	6.951429	31.78848
1135	6.70497	3.2134477	71.3658	70.9615	6.951615	31.78883
1136	6.70327	3.2133294	71.6003	71.1946	6.951886	31.78900
1137	6.70110	3.2132360	71.8407	71.4336	6.952200	31.78988
1138	6.69765	3.2132673	72.0783	71.6699	6.952610	31.79331
1139	6.69429	3.2132674	72.3097	71.8998	6.953022	31.79632
1140	6.69156	3.2133610	72.5441	72.1329	6.953313	31.79977
1141	6.68950	3.2133610	72.7817	72.3691	6.953568	31.80157
1142	6.68852	3.2134795	73.0132	72.5992	6.953633	31.80367
1143	6.68780	3.2134796	73.2506	72.8352	6.953726	31.80423
1144	6.68692	3.2134797	73.5002	73.0834	6.953838	31.80493
1145	6.68625	3.2135109	73.7256	73.3074	6.953909	31.80579
1146	6.68553	3.2135421	73.9753	73.5558	6.953986	31.80668
1147	6.68460	3.2136357	74.2127	73.7917	6.954057	31.80846
1148	6.68357	3.2136669	74.4531	74.0307	6.954172	31.80964
1149	6.68202	3.2136670	74.6999	74.2761	6.954366	31.81097
1150	6.67785	3.2138167	74.9374	74.5121	6.954804	31.81637
1151	6.67218	3.2138479	75.1689	74.7424	6.955482	31.82187
1152	6.66702	3.2137920	75.3974	74.9695	6.956142	31.82594
1153	6.66182	3.2137921	75.6377	75.2084	6.956779	31.83066
1154	6.65754	3.2137922	75.8692	75.4385	6.957304	31.83453
1155	6.65342	3.2137612	76.0975	75.6655	6.957826	31.83791
1156	6.64904	3.2137613	76.3289	75.8956	6.958363	31.84188
1157	6.64528	3.2136680	76.5633	76.1285	6.958872	31.84424
1158	6.64183	3.2136369	76.8011	76.3649	6.959312	31.84700
1159	6.63874	3.2136370	77.0384	76.6009	6.959693	31.84976
1160	6.63668	3.2135437	77.3004	76.8614	6.959996	31.85053
1161	6.63379	3.2134815	77.5651	77.1245	6.960383	31.85240
1162	6.62797	3.2135439	77.7935	77.3516	6.961065	31.85840
1163	6.62231	3.2136063	78.0310	77.5876	6.961728	31.86424
1164	6.61783	3.2135442	78.2745	77.8298	6.962309	31.86761
1165	6.61284	3.2135692	78.5089	78.0627	6.962909	31.87243
1166	6.60785	3.2135133	78.7496	78.3020	6.963550	31.87635
1167	6.60404	3.2134822	78.9810	78.5321	6.964034	31.87944
1168	6.60074	3.2134823	79.2186	78.7683	6.964440	31.88240
1169	6.59709	3.2134824	79.4500	78.9983	6.964890	31.88570
1170	6.59370	3.2134514	79.6873	79.2342	6.965324	31.88841
1171	6.59066	3.2134515	79.9188	79.4644	6.965698	31.89113
1172	6.58835	3.2134267	80.1349	79.6792	6.965997	31.89291
1173	6.58634	3.2134517	80.3724	79.9153	6.966234	31.89495
1174	6.58433	3.2134518	80.6009	80.1424	6.966483	31.89671
1175	6.58212	3.2134519	80.8355	80.3757	6.966758	31.89866
1176	6.57904	3.2134831	81.0728	80.6115	6.967123	31.90177
1177	6.57574	3.2135144	81.2981	80.8355	6.967513	31.90508
1178	6.57281	3.2135145	81.5417	81.0778	6.967875	31.90770
1179	6.57086	3.2135457	81.7761	81.3107	6.968103	31.90976
1180	6.56926	3.2136081	82.0105	81.5438	6.968271	31.91182
1181	6.56705	3.2137328	82.2482	81.7800	6.968483	31.91514
1182	6.56345	3.2137952	82.4796	82.0101	6.968895	31.91908
1183	6.55888	3.2138826	82.7050	82.2342	6.969414	31.92420
1184	6.55456	3.2140385	82.9334	82.4612	6.969867	31.92984
1185	6.55014	3.2140697	83.1585	82.6850	6.970395	31.93421
1186	6.54413	3.2141633	83.3901	82.9153	6.971086	31.94074
1187	6.53879	3.2141635	83.6122	83.1360	6.971742	31.94563
1188	6.53539	3.2141636	83.8437	83.3661	6.972161	31.94869
1189	6.53267	3.2141637	84.0751	83.5962	6.972497	31.95113
1190	6.52969	3.2141638	84.3064	83.8262	6.972866	31.95381
1191	6.52733	3.2141327	84.5409	84.0593	6.973174	31.95556
1192	6.52589	3.2141016	84.7693	84.2863	6.973370	31.95646
1193	6.52389	3.2140083	84.9945	84.5102	6.973666	31.95720
1194	6.52075	3.2140395	85.2260	84.7403	6.974037	31.96036
1195	6.51726	3.2140085	85.4574	84.9704	6.974484	31.96317
1196	6.51413	3.2140086	85.6920	85.2035	6.974871	31.96599
1197	6.51115	3.2139277	85.9265	85.4367	6.975280	31.96778
1198	6.50833	3.2139776	86.1548	85.6636	6.975604	31.97086
1199	6.50561	3.2139777	86.3772	85.8847	6.975941	31.97330
1200	6.50314	3.2139778	86.6176	86.1237	6.976246	31.97550
1201	6.50058	3.2139468	86.8430	86.3478	6.976580	31.97745
1202	6.49786	3.2140092	87.0744	86.5778	6.976886	31.98057
1203	6.49488	3.2140716	87.3027	86.8048	6.977223	31.98394
1204	6.48939	3.2141652	87.5463	87.0469	6.977851	31.99000
1205	6.48287	3.2142526	87.8052	87.3042	6.978608	31.99694
1206	6.47646	3.2143773	88.0426	87.5402	6.979333	32.00422
1207	6.47112	3.2143775	88.2619	87.7583	6.979989	32.00911
1208	6.46753	3.2144087	88.4934	87.9884	6.980417	32.01271
1209	6.46522	3.2144088	88.7309	88.2245	6.980704	32.01477
1210	6.46374	3.2144089	88.9683	88.4605	6.980891	32.01605
1211	6.46250	3.2144401	89.2058	88.6965	6.981030	32.01744
1212	6.46097	3.2145960	89.4342	88.9236	6.981145	32.02049
1213	6.45748	3.2146771	89.6717	89.1597	6.981535	32.02454
1214	6.45194	3.2148081	89.8970	89.3837	6.982150	32.03108
1215	6.44481	3.2148706	90.1192	89.6046	6.982994	32.03835
1216	6.43795	3.2149330	90.3537	89.8377	6.983807	32.04537
1217	6.43251	3.2149955	90.5791	90.0617	6.984444	32.05106
1218	6.42893	3.2149956	90.7982	90.2796	6.984887	32.05432
1219	6.42677	3.2149957	91.0297	90.5096	6.985155	32.05624
1220	6.42513	3.2149646	91.2612	90.7398	6.985376	32.05732
1221	6.42344	3.2149647	91.4803	90.9576	6.985587	32.05881
1222	6.42160	3.2150208	91.7119	91.1878	6.985789	32.06105
1223	6.41960	3.2150209	91.9525	91.4270	6.986039	32.06282
1224	6.41755	3.2150210	92.1775	91.6507	6.986294	32.06464
1225	6.41571	3.2150211	92.4121	91.8838	6.986524	32.06626
1226	6.41407	3.2150524	92.6465	92.1169	6.986714	32.06803
1227	6.41248	3.2150525	92.8752	92.3442	6.986913	32.06942
1228	6.41125	3.2150214	93.1003	92.5679	6.987084	32.07012
1229	6.40976	3.2150651	93.3256	92.7919	6.987248	32.07190
1230	6.40828	3.2150527	93.5508	93.0158	6.987441	32.07305
1231	6.40726	3.2150528	93.7704	93.2340	6.987571	32.07391
1232	6.40679	3.2150840	93.9894	93.4518	6.987616	32.07458
1233	6.40623	3.2150841	94.2178	93.6788	6.987690	32.07501
1234	6.40495	3.2151153	94.4370	93.8967	6.987836	32.07645
1235	6.40341	3.2151466	94.6532	94.1116	6.988012	32.07814
1236	6.40178	3.2151467	94.8755	94.3326	6.988217	32.07957
1237	6.40003	3.2151156	95.1100	94.5657	6.988451	32.08076
1238	6.39875	3.2151468	95.3323	94.7866	6.988597	32.08220
1239	6.39773	3.2151781	95.5578	95.0108	6.988711	32.08340
1240	6.39640	3.2151782	95.7800	95.2317	6.988879	32.08455
1241	6.39502	3.2152406	95.9991	95.4496	6.989021	32.08644
1242	6.39374	3.2152718	96.2247	95.6737	6.989167	32.08788
1243	6.39077	3.2154526	96.4437	95.8915	6.989443	32.09257
1244	6.38309	3.2155774	96.6600	96.1064	6.990324	32.10107
1245	6.37428	3.2155464	96.8975	96.3426	6.991422	32.10890
1246	6.36794	3.2155839	97.1197	96.5635	6.992184	32.11519
1247	6.36395	3.2155466	97.3389	96.7813	6.992696	32.11843
1248	6.36118	3.2154844	97.5582	96.9994	6.993070	32.12024
1249	6.35929	3.2154534	97.7836	97.2234	6.993322	32.12157
1250	6.35796	3.2154223	98.0363	97.4746	6.993506	32.12236
1251	6.35663	3.2154847	98.2679	97.7048	6.993642	32.12419
1252	6.35617	3.2153975	98.4962	97.9317	6.993747	32.12356
1253	6.35551	3.2153664	98.7123	98.1465	6.993849	32.12374
1254	6.35469	3.2152419	98.9377	98.3706	6.994017	32.12302
1255	6.35372	3.2152108	99.1840	98.6155	6.994157	32.12348
1256	6.35279	3.2150239	99.4004	98.8306	6.994369	32.12217
1257	6.35095	3.2148745	99.6348	99.0635	6.994675	32.12214
1258	6.34809	3.2148434	99.8573	99.2847	6.995046	32.12439
1259	6.34512	3.2148435	100.0918	99.5178	6.995414	32.12708
1260	6.34303	3.2148748	100.3049	99.7296	6.995660	32.12930
1261	6.34175	3.2151802	100.5270	99.9504	6.995667	32.13378
1262	6.34170	3.2153049	100.7434	100.1655	6.995615	32.13510
1263	6.34216	3.2154234	100.9656	100.3864	6.995503	32.13588
1264	6.34272	3.2154546	101.1879	100.6074	6.995423	32.13559
1265	6.34308	3.2154858	101.4133	100.8314	6.995369	32.13549
1266	6.34333	3.2154859	101.6356	101.0523	6.995342	32.13514
1267	6.34343	3.2154236	101.8700	101.2853	6.995366	32.13424
1268	6.34267	3.2153988	102.0953	101.5094	6.995478	32.13458
1269	6.34175	3.2153054	102.3296	101.7422	6.995643	32.13431
1270	6.34011	3.2148755	102.5521	101.9634	6.996065	32.13098
1271	6.33561	3.2144768	102.7743	102.1842	6.996822	32.13070
1272	6.32942	3.2144146	102.9998	102.4084	6.997616	32.13574
1273	6.32482	3.2143213	103.2283	102.6355	6.998232	32.13894
1274	6.32125	3.2141407	103.4442	102.8502	6.998766	32.14021
1275	6.31808	3.2140473	103.6668	103.0714	6.999207	32.14206
1276	6.31537	3.2138605	103.8827	103.2860	6.999638	32.14244
1277	6.31256	3.2135553	104.1019	103.5039	7.000141	32.14161
1278	6.30903	3.2134059	104.3244	103.7250	7.000654	32.14317
1279	6.30581	3.2130945	104.5527	103.9520	7.001211	32.14265
1280	6.30193	3.2130385	104.7750	104.1729	7.001720	32.14559
1281	6.29876	3.2127894	104.9911	104.3878	7.002239	32.14571
1282	6.29570	3.2128207	105.2135	104.6088	7.002604	32.14885
1283	6.29289	3.2126650	105.4389	104.8329	7.003032	32.14966
1284	6.28885	3.2126651	105.6703	105.0629	7.003532	32.15336
1285	6.28533	3.2122977	105.8834	105.2747	7.004155	32.15252
1286	6.28007	3.2117496	106.1057	105.4956	7.005083	32.15130
1287	6.27267	3.2115068	106.3186	105.7073	7.006119	32.15550
1288	6.26572	3.2112578	106.5320	105.9194	7.007102	32.15919
1289	6.25914	3.2108282	106.7483	106.1344	7.008133	32.16054
1290	6.25210	3.2105543	106.9583	106.3432	7.009142	32.16405
1291	6.24557	3.2103987	107.1867	106.5702	7.010028	32.16839
1292	6.24031	3.2102182	107.4060	106.7882	7.010769	32.17125
1293	6.23531	3.2096641	107.6373	107.0181	7.011670	32.16971
1294	6.22822	3.2093778	107.8748	107.2541	7.012692	32.17312
1295	6.22001	3.2091164	108.1093	107.4872	7.013839	32.17787
1296	6.21063	3.2090231	108.3500	107.7265	7.015045	32.18560
1297	6.20023	3.2091167	108.5660	107.9412	7.016281	32.19638
1298	6.19223	3.2091169	108.7824	108.1562	7.017269	32.20385
1299	6.18652	3.2091481	109.0169	108.3894	7.017961	32.20949
1300	6.18219	3.2092105	109.2359	108.6071	7.018466	32.21418
1301	6.17725	3.2091795	109.4614	108.8312	7.019095	32.21841
1302	6.17313	3.2092108	109.6836	109.0521	7.019592	32.22257
1303	6.17012	3.2092109	109.9151	109.2821	7.019966	32.22530
1304	6.16793	3.2092732	110.1374	109.5031	7.020209	32.22797
1305	6.16386	3.2092111	110.3657	109.7301	7.020747	32.23103
1306	6.15698	3.2091801	110.5819	109.9450	7.021614	32.23710
1307	6.15006	3.2092176	110.7952	110.1569	7.022451	32.24399
1308	6.14492	3.2092115	111.0205	110.3809	7.023092	32.24869
1309	6.14029	3.2092116	111.2336	110.5927	7.023667	32.25298
1310	6.13550	3.2091806	111.4560	110.8138	7.024277	32.25707
1311	6.13118	3.2092118	111.6721	111.0286	7.024798	32.26143
1312	6.12716	3.2092431	111.8945	111.2496	7.025282	32.26548
1313	6.12350	3.2092120	112.1044	111.4583	7.025754	32.26852
1314	6.11795	3.2091810	112.3237	111.6763	7.026458	32.27334
1315	6.11226	3.2089943	112.5430	111.8942	7.027260	32.27656
1316	6.10519	3.2088761	112.7592	112.1092	7.028196	32.28186
1317	6.09771	3.2088140	112.9693	112.3180	7.029154	32.28818
1318	6.09151	3.2087207	113.1855	112.5328	7.029971	32.29293
1319	6.08673	3.2086275	113.4047	112.7507	7.030613	32.29633
1320	6.08134	3.2085404	113.6301	112.9747	7.031327	32.30038
1321	6.07382	3.2085779	113.8433	113.1867	7.032240	32.30785
1322	6.06798	3.2085407	114.0502	113.3923	7.032984	32.31290
1323	6.06260	3.2085657	114.2666	113.6074	7.033640	32.31821
1324	6.05681	3.2085658	114.4888	113.8283	7.034359	32.32362
1325	6.05239	3.2085410	114.6958	114.0341	7.034922	32.32745
1326	6.04949	3.2085100	114.9151	114.2520	7.035300	32.32976
1327	6.04736	3.2085101	115.1345	114.4701	7.035568	32.33168
1328	6.04558	3.2085413	115.3383	114.6727	7.035776	32.33363
1329	6.04441	3.2085414	115.5486	114.8816	7.035924	32.33464
1330	6.04360	3.2085415	115.7558	115.0876	7.036029	32.33532
1331	6.04218	3.2085415	115.9536	115.2842	7.036209	32.33658
1332	6.04030	3.2084794	116.1545	115.4839	7.036477	32.33758
1333	6.03822	3.2085106	116.3769	115.7049	7.036723	32.33980
1334	6.03588	3.2085792	116.5840	115.9108	7.036981	32.34270
1335	6.03406	3.2085668	116.8061	116.1315	7.037218	32.34419
1336	6.03167	3.2084486	117.0133	116.3375	7.037577	32.34505
1337	6.02665	3.2079879	117.2266	116.5495	7.038439	32.34459
1338	6.01487	3.2079570	117.4365	116.7581	7.039914	32.35538
1339	6.00457	3.2080194	117.6651	116.9853	7.041159	32.36580
1340	5.99849	3.2079262	117.9269	117.2455	7.041965	32.37044
1341	5.99483	3.2079574	118.1339	117.4513	7.042404	32.37418
1342	5.99286	3.2079575	118.3349	117.6511	7.042653	32.37597
1343	5.99149	3.2078642	118.5450	117.8599	7.042875	32.37614
1344	5.99017	3.2077771	118.7550	118.0687	7.043088	32.37632
1345	5.98875	3.2078332	118.9622	118.2746	7.043239	32.37820
1346	5.98773	3.2078084	119.1632	118.4743	7.043381	32.37880
1347	5.98702	3.2077026	119.3733	118.6832	7.043528	32.37819
1348	5.98571	3.2075595	119.5772	118.8859	7.043770	32.37775
1349	5.98342	3.2075596	119.7965	119.1038	7.044056	32.37983
1350	5.98140	3.2075908	120.0068	119.3128	7.044296	32.38201
1351	5.98104	3.2076842	120.2169	119.5216	7.044296	32.38330
1352	5.98165	3.2076843	120.4210	119.7245	7.044225	32.38262
1353	5.98221	3.2076532	120.6248	119.9271	7.044177	32.38164
1354	5.98226	3.2075288	120.8319	120.1329	7.044239	32.38010
1355	5.98079	3.2074417	121.0361	120.3359	7.044471	32.38043
1356	5.97911	3.2074106	121.2340	120.5326	7.044698	32.38158
1357	5.97754	3.2073485	121.4287	120.7261	7.044929	32.38230
1358	5.97622	3.2072551	121.6421	120.9382	7.045144	32.38241
1359	5.97480	3.2071930	121.8370	121.1319	7.045356	32.38298
1360	5.97394	3.2072553	122.0318	121.3255	7.045435	32.38440
1361	5.97349	3.2072554	122.2450	121.5375	7.045496	32.38474
1362	5.97364	3.2073177	122.4462	121.7374	7.045450	32.38519
1363	5.97394	3.2074423	122.6562	121.9461	7.045353	32.38619
1364	5.97455	3.2072867	122.8663	122.1549	7.045362	32.38377
1365	5.97344	3.2069817	123.0672	122.3547	7.045662	32.38133
1366	5.97029	3.2068884	123.2742	122.5604	7.046103	32.38319
1367	5.96690	3.2063095	123.4812	122.7662	7.046826	32.37986
1368	5.95970	3.2062163	123.6763	122.9601	7.047769	32.38560
1369	5.95205	3.2061853	123.8864	123.1689	7.048736	32.39246
1370	5.94668	3.2061543	124.0814	123.3626	7.049421	32.39716
1371	5.94323	3.2061233	124.2913	123.5713	7.049868	32.40001
1372	5.94085	3.2060922	124.4862	123.7650	7.050183	32.40184
1373	5.93868	3.2061235	124.6752	123.9528	7.050441	32.40418
1374	5.93675	3.2060924	124.8761	124.1525	7.050699	32.40558
1375	5.93118	3.2061237	125.0741	124.3493	7.051377	32.41117
1376	5.92505	3.2060927	125.2750	124.5490	7.052156	32.41659
1377	5.92060	3.2061550	125.4730	124.7458	7.052680	32.42146
1378	5.91675	3.2060929	125.6710	124.9425	7.053193	32.42435
1379	5.91245	3.2060369	125.8597	125.1302	7.053759	32.42775
1380	5.90840	3.2060370	126.0577	125.3269	7.054265	32.43154
1381	5.90501	3.2059126	126.2467	125.5147	7.054754	32.43330
1382	5.90146	3.2059750	126.4536	125.7203	7.055165	32.43729
1383	5.89833	3.2060062	126.6484	125.9140	7.055542	32.44056
1384	5.89615	3.2060934	126.8799	126.1441	7.055771	32.44351
1385	5.89428	3.2062180	127.0961	126.3589	7.055944	32.44660
1386	5.89261	3.2062492	127.2939	126.5555	7.056139	32.44845
1387	5.89170	3.2063116	127.4920	126.7524	7.056224	32.44993
1388	5.89084	3.2063739	127.6869	126.9462	7.056302	32.45136
1389	5.89023	3.2064051	127.8969	127.1549	7.056366	32.45219
1390	5.88988	3.2064051	128.0918	127.3486	7.056414	32.45243
1391	5.88973	3.2064052	128.2868	127.5424	7.056438	32.45248
1392	5.88942	3.2064302	128.4909	127.7452	7.056467	32.45296
1393	5.88932	3.2064614	128.7040	127.9571	7.056468	32.45330
1394	5.88861	3.2064614	128.9080	128.1598	7.056560	32.45388
1395	5.88735	3.2065549	129.0999	128.3505	7.056673	32.45605
1396	5.88512	3.2065550	129.3161	128.5654	7.056953	32.45808
1397	5.88077	3.2064804	129.5171	128.7652	7.057536	32.46132
1398	5.87116	3.2062191	129.7332	128.9800	7.058867	32.46750
1399	5.85534	3.2060388	129.9464	129.1919	7.060927	32.48057
1400	5.83295	3.2060640	130.1444	129.3886	7.063695	32.50227
1401	5.81118	3.2061265	130.3543	129.5973	7.066369	32.52381
1402	5.79356	3.2062513	130.5585	129.8002	7.068496	32.54208
1403	5.78145	3.2064631	130.7656	130.0060	7.069894	32.55603
1404	5.77383	3.2064944	130.9846	130.2237	7.070829	32.56362
1405	5.76908	3.2065568	131.2042	130.4419	7.071391	32.56879
1406	5.76616	3.2065569	131.4143	130.6507	7.071759	32.57151
1407	5.76404	3.2066503	131.6212	130.8563	7.071978	32.57451
1408	5.76222	3.2066504	131.8497	131.0835	7.072209	32.57615
1409	5.76041	3.2067127	132.0628	131.2953	7.072407	32.57850
1410	5.75829	3.2067440	132.2791	131.5103	7.072658	32.58079
1411	5.75637	3.2067440	132.4924	131.7223	7.072901	32.58253
1412	5.75441	3.2067130	132.7084	131.9370	7.073167	32.58397
1413	5.75244	3.2067131	132.9306	132.1578	7.073416	32.58577
1414	5.75093	3.2068003	133.1438	132.3697	7.073563	32.58810
1415	5.74921	3.2068004	133.3632	132.5877	7.073781	32.58965
1416	5.74563	3.2069562	133.5944	132.8175	7.074150	32.59475
1417	5.73883	3.2075976	133.8136	133.0354	7.074666	32.60844
1418	5.72643	3.2081207	134.0330	133.2534	7.075939	32.62621
1419	5.71242	3.2087623	134.2583	133.4773	7.077350	32.64688
1420	5.70219	3.2091610	134.4838	133.7014	7.078418	32.66116
1421	5.69564	3.2093417	134.6999	133.9162	7.079142	32.66944
1422	5.69111	3.2096221	134.9284	134.1433	7.079564	32.67688
1423	5.68724	3.2103571	135.1566	134.3701	7.079666	32.68881
1424	5.68240	3.2106312	135.3850	134.5971	7.080129	32.69648
1425	5.67661	3.2107559	135.6134	134.8241	7.080789	32.70339
1426	5.67113	3.2110301	135.8388	135.0481	7.081332	32.71170
1427	5.66685	3.2111548	136.0609	135.2688	7.081804	32.71715
1428	5.66327	3.2111798	136.2833	135.4899	7.082240	32.72079
1429	5.66021	3.2111799	136.5544	135.7594	7.082628	32.72363
1430	5.65668	3.2112112	136.8011	136.0045	7.083056	32.72729
1431	5.65205	3.2112113	137.0325	136.2345	7.083637	32.73167
1432	5.64813	3.2111803	137.2637	136.4643	7.084146	32.73501
1433	5.64456	3.2111804	137.4983	136.6974	7.084596	32.73837
1434	5.64159	3.2111805	137.7357	136.9334	7.084971	32.74114
1435	5.63867	3.2113675	137.9612	137.1575	7.085241	32.74597
1436	5.63329	3.2114984	138.1956	137.3904	7.085847	32.75257
1437	5.62666	3.2115484	138.4453	137.6386	7.086652	32.75946
1438	5.62168	3.2116108	138.6646	137.8565	7.087244	32.76490
1439	5.61861	3.2116732	138.8991	138.0896	7.087598	32.76847
1440	5.61655	3.2117978	139.1303	138.3194	7.087795	32.77177
1441	5.61489	3.2118914	139.3679	138.5555	7.087957	32.77433
1442	5.61333	3.2119475	139.5963	138.7825	7.088127	32.77637
1443	5.61172	3.2120411	139.8369	139.0216	7.088284	32.77887
1444	5.61012	3.2120723	140.0714	139.2546	7.088473	32.78067
1445	5.60846	3.2121658	140.3029	139.4847	7.088635	32.78323
1446	5.60660	3.2121971	140.5404	139.7208	7.088856	32.78528
1447	5.60494	3.2122594	140.7718	139.9507	7.089035	32.78748
1448	5.60348	3.2123156	141.0092	140.1866	7.089192	32.78942
1449	5.60208	3.2123468	141.2529	140.4289	7.089357	32.79102
1450	5.60092	3.2123469	141.4841	140.6587	7.089506	32.79203
1451	5.60012	3.2124031	141.7220	140.8950	7.089582	32.79333
1452	5.59891	3.2124405	141.9714	141.1429	7.089718	32.79481
1453	5.59811	3.2125029	142.2212	141.3911	7.089791	32.79618
1454	5.59695	3.2125030	142.4769	141.6453	7.089941	32.79718
1455	5.59529	3.2125342	142.7175	141.8844	7.090136	32.79903
1456	5.59399	3.2125655	142.9611	142.1265	7.090288	32.80053
1457	5.59293	3.2125656	143.2107	142.3746	7.090425	32.80144
1458	5.59132	3.2126279	143.4421	142.6045	7.090598	32.80359
1459	5.58992	3.2126592	143.6948	142.8557	7.090762	32.80519
1460	5.58841	3.2126842	143.9324	143.0918	7.090942	32.80683
1461	5.58695	3.2127154	144.1699	143.3278	7.091113	32.80848
1462	5.58555	3.2128713	144.4196	143.5760	7.091212	32.81149
1463	5.58344	3.2130271	144.6754	143.8302	7.091398	32.81519
1464	5.58103	3.2130584	144.9311	144.0843	7.091688	32.81777
1465	5.57927	3.2131145	145.1869	144.3385	7.091883	32.81999
1466	5.57761	3.2131832	145.4487	144.5987	7.092059	32.82225
1467	5.57610	3.2132082	145.6924	144.8409	7.092239	32.82388
1468	5.57470	3.2132083	145.9543	145.1012	7.092421	32.82513
1469	5.57359	3.2131772	146.1947	145.3401	7.092580	32.82573
1470	5.57264	3.2132085	146.4384	145.5822	7.092688	32.82690
1471	5.57209	3.2132397	146.6698	145.8123	7.092746	32.82767
1472	5.57179	3.2132709	146.9287	146.0696	7.092773	32.82819
1473	5.57179	3.2132710	147.1874	146.3266	7.092779	32.82807
1474	5.57179	3.2132711	147.4525	146.5901	7.092785	32.82794
1475	5.57179	3.2132400	147.7173	146.8533	7.092807	32.82745
1476	5.57163	3.2133024	147.9974	147.1316	7.092799	32.82817
1477	5.57143	3.2133025	148.2441	147.3768	7.092830	32.82824
1478	5.57083	3.2135144	148.4848	147.6160	7.092799	32.83111
1479	5.56867	3.2136391	148.7284	147.8580	7.093008	32.83451
1480	5.56636	3.2137950	148.9838	148.1118	7.093219	32.83840
1481	5.56440	3.2138823	149.2366	148.3631	7.093423	32.84118
1482	5.56295	3.2140880	149.4834	148.6084	7.093502	32.84480
1483	5.56154	3.2142812	149.7240	148.8475	7.093580	32.84825
1484	5.56019	3.2144994	149.9737	149.0956	7.093640	32.85192
1485	5.55838	3.2145930	150.2203	149.3407	7.093822	32.85462
1486	5.55707	3.2145619	150.4638	149.5826	7.094006	32.85542
1487	5.55602	3.2146492	150.7166	149.8339	7.094097	32.85731
1488	5.55532	3.2147116	150.9571	150.0730	7.094157	32.85859
1489	5.55487	3.2147117	151.2130	150.3272	7.094220	32.85890
1490	5.55441	3.2148053	151.4655	150.5781	7.094232	32.86028
1491	5.55371	3.2148988	151.7123	150.8234	7.094276	32.86190
1492	5.55331	3.2149301	151.9680	151.0775	7.094316	32.86252
1493	5.55291	3.2149301	152.2270	151.3349	7.094372	32.86279
1494	5.55281	3.2149302	152.4733	151.5797	7.094390	32.86276
1495	5.55296	3.2150487	152.7112	151.8161	7.094314	32.86384
1496	5.55286	3.2151111	152.9758	152.0790	7.094300	32.86452
1497	5.55301	3.2151112	153.2164	152.3181	7.094286	32.86425
1498	5.55321	3.2151611	153.4570	152.5572	7.094241	32.86450
1499	5.55331	3.2152048	153.7066	152.8053	7.094211	32.86477
1500	5.55336	3.2152360	153.9350	153.0323	7.094193	32.86497
1501	5.55326	3.2154230	154.1787	153.2745	7.094113	32.86706
1502	5.55341	3.2153920	154.4283	153.5225	7.094116	32.86644
1503	5.55346	3.2153920	154.6810	153.7736	7.094116	32.86627
1504	5.55351	3.2154482	154.9216	154.0127	7.094085	32.86674
1505	5.55356	3.2154233	155.1680	154.2576	7.094098	32.86628
1506	5.55361	3.2155107	155.4211	154.5091	7.094051	32.86710
1507	5.55381	3.2157912	155.6676	154.7541	7.093884	32.86996
1508	5.55426	3.2158473	155.9234	155.0083	7.093804	32.87003
1509	5.55477	3.2157913	156.1550	155.2384	7.093777	32.86879
1510	5.55492	3.2157914	156.3984	155.4803	7.093763	32.86852
1511	5.55492	3.2157292	156.6450	155.7254	7.093802	32.86769
1512	5.55477	3.2158227	156.8917	155.9705	7.093777	32.86878
1513	5.55477	3.2158477	157.1233	156.2006	7.093769	32.86895
1514	5.55492	3.2158789	157.3486	156.4245	7.093739	32.86904
1515	5.55512	3.2159725	157.5980	156.6725	7.093670	32.86978
1516	5.55512	3.2160349	157.8326	156.9055	7.093643	32.87037
1517	5.55527	3.2160661	158.0732	157.1446	7.093613	32.87046
1518	5.55537	3.2160039	158.3136	157.3835	7.093639	32.86954
1519	5.55537	3.2160351	158.5727	157.6410	7.093629	32.86977
1520	5.55527	3.2160975	158.8497	157.9163	7.093615	32.87043
1521	5.55542	3.2162222	159.1024	158.1674	7.093536	32.87157
1522	5.55532	3.2164031	159.3491	158.4126	7.093459	32.87360
1523	5.55507	3.2164966	159.5836	158.6456	7.093446	32.87479
1524	5.55436	3.2165590	159.8303	158.8907	7.093506	32.87606
1525	5.55341	3.2165591	160.0647	159.1237	7.093631	32.87688
1526	5.55236	3.2165904	160.3020	159.3595	7.093751	32.87814
1527	5.55125	3.2166216	160.5396	159.5956	7.093877	32.87946
1528	5.55015	3.2166217	160.7742	159.8287	7.094020	32.88042
1529	5.54894	3.2166530	161.0270	160.0799	7.094160	32.88183
1530	5.54799	3.2166780	161.2613	160.3128	7.094271	32.88293
1531	5.54719	3.2167092	161.5110	160.5609	7.094360	32.88394
1532	5.54638	3.2167405	161.7578	160.8061	7.094449	32.88496
1533	5.54583	3.2168153	161.9983	161.0451	7.094484	32.88623
1534	5.54508	3.2168341	162.2448	161.2901	7.094573	32.88705
1535	5.54408	3.2168342	162.4852	161.5290	7.094704	32.88792
1536	5.54332	3.2168966	162.7227	161.7650	7.094770	32.88924
1537	5.54222	3.2168967	162.9666	162.0073	7.094913	32.89020
1538	5.54142	3.2169280	163.2011	162.2404	7.095002	32.89122
1539	5.54086	3.2169592	163.4263	162.4642	7.095060	32.89201
1540	5.54036	3.2169281	163.6578	162.6942	7.095144	32.89203
1541	5.54016	3.2169593	163.9013	162.9362	7.095158	32.89246
1542	5.53976	3.2169906	164.1361	163.1695	7.095197	32.89309
1543	5.53911	3.2170530	164.3765	163.4084	7.095251	32.89432
1544	5.53740	3.2171404	164.6169	163.6473	7.095423	32.89685
1545	5.53429	3.2172028	164.8485	163.8774	7.095783	32.90049
1546	5.53058	3.2173899	165.0829	164.1104	7.096152	32.90612
1547	5.52611	3.2175708	165.3112	164.3372	7.096618	32.91243
1548	5.52060	3.2177267	165.5580	164.5825	7.097229	32.91947
1549	5.51558	3.2177892	165.7860	164.8090	7.097826	32.92498
1550	5.51127	3.2179078	166.0297	165.0512	7.098306	32.93042
1551	5.50716	3.2180824	166.2643	165.2843	7.098732	32.93631
1552	5.50310	3.2181885	166.4989	165.5174	7.099187	32.94138
1553	5.49964	3.2182198	166.7303	165.7474	7.099607	32.94501
1554	5.49703	3.2183134	166.9585	165.9742	7.099888	32.94851
1555	5.49513	3.2183135	167.1962	166.2104	7.100131	32.95026
1556	5.49387	3.2183136	167.4245	166.4372	7.100292	32.95137
1557	5.49287	3.2183386	167.6619	166.6732	7.100409	32.95252
1558	5.49207	3.2183387	167.8963	166.9060	7.100515	32.95319
1559	5.49137	3.2183699	168.1217	167.1300	7.100591	32.95412
1560	5.49071	3.2184012	168.3622	167.3690	7.100661	32.95500
1561	5.48996	3.2184324	168.6029	167.6082	7.100744	32.95597
1562	5.48906	3.2184948	168.8314	167.8352	7.100829	32.95745
1563	5.48761	3.2185573	169.0749	168.0773	7.100982	32.95946
1564	5.48585	3.2186509	169.3185	168.3193	7.101157	32.96212
1565	5.48350	3.2187445	169.5893	168.5883	7.101408	32.96536
1566	5.48119	3.2188007	169.8513	168.8487	7.101671	32.96813
1567	5.47909	3.2188632	170.0917	169.0876	7.101906	32.97078
1568	5.47718	3.2189568	170.3111	169.3056	7.102099	32.97360
1569	5.47563	3.2189569	170.5457	169.5388	7.102298	32.97501
1570	5.47453	3.2189881	170.7862	169.7777	7.102425	32.97633
1571	5.47358	3.2190568	171.0146	170.0047	7.102512	32.97793
1572	5.47257	3.2190506	171.2491	170.2377	7.102646	32.97872
1573	5.47177	3.2191130	171.4864	170.4735	7.102718	32.98010
1574	5.47097	3.2191131	171.7150	170.7006	7.102824	32.98078
1575	5.47037	3.2190820	171.9676	170.9517	7.102921	32.98089
1576	5.46957	3.2190821	172.2021	171.1847	7.103026	32.98156
1577	5.46847	3.2191695	172.4519	171.4329	7.103123	32.98351
1578	5.46706	3.2192008	172.6953	171.6748	7.103287	32.98512
1579	5.46541	3.2192632	172.9391	171.9170	7.103466	32.98733
1580	5.46361	3.2193256	173.1765	172.1529	7.103663	32.98969
1581	5.46110	3.2193257	173.4080	172.3829	7.103981	32.99203
1582	5.45910	3.2194193	173.6424	172.6159	7.104186	32.99495
1583	5.45715	3.2194818	173.8801	172.8521	7.104403	32.99746
1584	5.45499	3.2194819	174.1205	173.0910	7.104677	32.99945
1585	5.45339	3.2195443	174.3611	173.3301	7.104849	33.00162
1586	5.45249	3.2195132	174.5985	173.5659	7.104983	33.00203
1587	5.45184	3.2195757	174.8332	173.7991	7.105037	33.00326
1588	5.45104	3.2196630	175.0767	174.0411	7.105096	33.00492
1589	5.44999	3.2197255	175.3078	174.2708	7.105200	33.00655
1590	5.44873	3.2197256	175.5515	174.5129	7.105361	33.00766
1591	5.44788	3.2198005	175.7954	174.7553	7.105434	33.00922
1592	5.44698	3.2198192	176.0299	174.9882	7.105542	33.01021
1593	5.44613	3.2198817	176.2612	175.2181	7.105620	33.01164
1594	5.44548	3.2198818	176.5015	175.4569	7.105707	33.01216
1595	5.44498	3.2198818	176.7330	175.6869	7.105774	33.01253
1596	5.44468	3.2198819	176.9736	175.9260	7.105817	33.01271
1597	5.44448	3.2199443	177.2082	176.1590	7.105815	33.01350
1598	5.44443	3.2199132	177.4394	176.3888	7.105843	33.01308
1599	5.44443	3.2199445	177.6861	176.6339	7.105832	33.01331
1600	5.44428	3.2199757	177.9238	176.8702	7.105840	33.01370
1601	5.44413	3.2199758	178.1704	177.1151	7.105864	33.01372
1602	5.44408	3.2199759	178.4416	177.3846	7.105877	33.01364
1603	5.44398	3.2200072	178.7276	177.6688	7.105879	33.01395
1604	5.44398	3.2200073	179.0383	177.9776	7.105886	33.01380
1605	5.44383	3.2200323	179.3000	178.2376	7.105898	33.01410
1606	5.44378	3.2200635	179.5133	178.4495	7.105892	33.01440
1607	5.44363	3.2200636	179.7415	178.6763	7.105916	33.01443
1608	5.44363	3.2200637	179.9760	178.9093	7.105922	33.01432
1609	5.44368	3.2200949	180.1981	179.1300	7.105904	33.01451
1610	5.44353	3.2201262	180.4448	179.3751	7.105912	33.01489
1611	5.44343	3.2201574	180.7343	179.6627	7.105915	33.01520
1612	5.44313	3.2201949	181.0021	179.9288	7.105939	33.01579
1613	5.44263	3.2202511	181.2579	180.1831	7.105977	33.01679
1614	5.44173	3.2203759	181.4830	180.4067	7.106029	33.01899
1615	5.44022	3.2203760	181.7114	180.6336	7.106221	33.02035
1616	5.43907	3.2204073	181.9582	180.8789	7.106354	33.02171
1617	5.43822	3.2204385	182.2081	181.1272	7.106449	33.02278
1618	5.43762	3.2204636	182.4484	181.3659	7.106517	33.02354
1619	5.43667	3.2204636	182.6859	181.6019	7.106641	33.02435
1620	5.43597	3.2205261	182.9051	181.8197	7.106700	33.02564
1621	5.43542	3.2205573	183.1457	182.0588	7.106758	33.02642
1622	5.43467	3.2205886	183.3925	182.3040	7.106841	33.02739
1623	5.43357	3.2207134	183.6238	182.5339	7.106917	33.02978
1624	5.43156	3.2208694	183.8521	182.7607	7.107090	33.03341
1625	5.42871	3.2209007	184.0897	182.9968	7.107435	33.03645
1626	5.42646	3.2209008	184.3271	183.2327	7.107721	33.03855
1627	5.42491	3.2209258	184.5587	183.4628	7.107907	33.04024
1628	5.42386	3.2209571	184.7992	183.7018	7.108027	33.04151
1629	5.42306	3.2210195	185.0426	183.9436	7.108099	33.04289
1630	5.42216	3.2210508	185.2988	184.1981	7.108201	33.04400
1631	5.42140	3.2210820	185.5453	184.4431	7.108284	33.04497
1632	5.42085	3.2210509	185.7980	184.6942	7.108375	33.04504
1633	5.42040	3.2210697	186.0356	184.9302	7.108427	33.04557
1634	5.42000	3.2211135	186.2791	185.1722	7.108459	33.04634
1635	5.41960	3.2211447	186.5105	185.4022	7.108498	33.04698
1636	5.41910	3.2211760	186.7450	185.6351	7.108549	33.04771
1637	5.41860	3.2212072	187.0005	185.8890	7.108601	33.04843
1638	5.41835	3.2212073	187.2565	186.1433	7.108638	33.04855
1639	5.41810	3.2212074	187.5001	186.3854	7.108675	33.04868
1640	5.41785	3.2212075	187.7132	186.5971	7.108711	33.04882
1641	5.41740	3.2212387	187.9506	186.8331	7.108756	33.04950
1642	5.41725	3.2212700	188.1943	187.0752	7.108764	33.04988
1643	5.41700	3.2213012	188.4196	187.2990	7.108784	33.05037
1644	5.41690	3.2212701	188.6724	187.5502	7.108819	33.04999
1645	5.41670	3.2213326	188.9038	187.7801	7.108816	33.05078
1646	5.41645	3.2213015	189.1505	188.0253	7.108869	33.05055
1647	5.41625	3.2213577	189.3911	188.2643	7.108870	33.05127
1648	5.41615	3.2213577	189.6254	188.4971	7.108888	33.05125
1649	5.41585	3.2213890	189.8691	188.7392	7.108914	33.05178
1650	5.41575	3.2213891	190.1065	188.9752	7.108932	33.05176
1651	5.41550	3.2214203	190.3380	189.2052	7.108952	33.05225
1652	5.41540	3.2214516	190.5785	189.4441	7.108954	33.05258
1653	5.41545	3.2214205	190.8220	189.6861	7.108970	33.05206
1654	5.41520	3.2214829	191.0595	189.9220	7.108973	33.05289
1655	5.41505	3.2214830	191.3154	190.1762	7.108998	33.05292
1656	5.41505	3.2214644	191.5562	190.4155	7.109013	33.05258
1657	5.41500	3.2214832	191.8330	190.6906	7.109016	33.05271
1658	5.41485	3.2215456	192.1222	190.9779	7.109008	33.05342
1659	5.41470	3.2215457	192.3752	191.2292	7.109033	33.05345
1660	5.41430	3.2215769	192.6155	191.4680	7.109072	33.05408
1661	5.41395	3.2216082	192.8560	191.7070	7.109105	33.05466
1662	5.41325	3.2216395	193.0754	191.9250	7.109181	33.05559
1663	5.41295	3.2216707	193.3249	192.1729	7.109207	33.05612
1664	5.41255	3.2217020	193.5809	192.4273	7.109246	33.05674
1665	5.41195	3.2217894	193.8211	192.6659	7.109281	33.05821
1666	5.41035	3.2219766	194.0682	192.9114	7.109387	33.06179
1667	5.40785	3.2221326	194.2964	193.1382	7.109621	33.06591
1668	5.40469	3.2221951	194.5400	193.3802	7.109987	33.06960
1669	5.40174	3.2222513	194.7836	193.6222	7.110331	33.07303
1670	5.40004	3.2222514	195.0242	193.8613	7.110549	33.07458
1671	5.39884	3.2222515	195.2769	194.1123	7.110705	33.07564
1672	5.39814	3.2222828	195.5296	194.3634	7.110781	33.07656
1673	5.39749	3.2223452	195.7518	194.5841	7.110835	33.07780
1674	5.39679	3.2224077	196.0137	194.8444	7.110895	33.07907
1675	5.39574	3.2224077	196.2391	195.0684	7.111031	33.07999
1676	5.39439	3.2224702	196.4797	195.3073	7.111172	33.08192
1677	5.39364	3.2224703	196.7170	195.5432	7.111271	33.08254
1678	5.39319	3.2224704	196.9515	195.7761	7.111333	33.08286
1679	5.39324	3.2225016	197.1922	196.0153	7.111316	33.08305
1680	5.39294	3.2225329	197.4237	196.2453	7.111342	33.08359
1681	5.39239	3.2225641	197.6610	196.4811	7.111399	33.08437
1682	5.39159	3.2225330	197.9076	196.7261	7.111522	33.08468
1683	5.39054	3.2226579	198.1513	196.9682	7.111592	33.08701
1684	5.38904	3.2226891	198.3858	197.2012	7.111768	33.08873
1685	5.38804	3.2226892	198.6261	197.4400	7.111899	33.08960
1686	5.38734	3.2227454	198.8487	197.6611	7.111961	33.09082
1687	5.38634	3.2227455	199.1045	197.9152	7.112092	33.09167
1688	5.38569	3.2227768	199.3418	198.1511	7.112162	33.09255
1689	5.38459	3.2228393	199.5824	198.3901	7.112272	33.09423
1690	5.38369	3.2228393	199.8169	198.6231	7.112390	33.09500
1691	5.38304	3.2228706	200.0605	198.8651	7.112460	33.09587
1692	5.38259	3.2229019	200.2918	199.0949	7.112505	33.09656
1693	5.38204	3.2229331	200.5203	199.3220	7.112562	33.09734
1694	5.38134	3.2229956	200.7483	199.5484	7.112622	33.09863
1695	5.38054	3.2230269	200.9892	199.7878	7.112710	33.09965
1696	5.37989	3.2230581	201.2086	200.0057	7.112780	33.10054
1697	5.37919	3.2230582	201.4459	200.2416	7.112873	33.10111
1698	5.37884	3.2230895	201.6894	200.4835	7.112906	33.10169
1699	5.37824	3.2231207	201.9209	200.7135	7.112969	33.10253
1700	5.37764	3.2231458	202.1736	200.9645	7.113037	33.10328
1701	5.37699	3.2232082	202.4173	201.2066	7.113090	33.10451
1702	5.37614	3.2232707	202.7034	201.4909	7.113170	33.10591
1703	5.37489	3.2233144	202.9379	201.7239	7.113308	33.10753
1704	5.37369	3.2233956	203.1845	201.9689	7.113421	33.10951
1705	5.37244	3.2235205	203.4219	202.2048	7.113516	33.11205
1706	5.37114	3.2235829	203.6505	202.4318	7.113650	33.11393
1707	5.36935	3.2237327	203.8818	202.6616	7.113800	33.11729
1708	5.36730	3.2237640	204.1224	202.9007	7.114045	33.11955
1709	5.36535	3.2237641	204.3599	203.1367	7.114294	33.12136
1710	5.36410	3.2237954	204.5821	203.3575	7.114439	33.12283
1711	5.36310	3.2237955	204.8288	203.6025	7.114569	33.12370
1712	5.36255	3.2238267	205.0632	203.8354	7.114627	33.12448
1713	5.36180	3.2239204	205.2976	204.0684	7.114676	33.12617
1714	5.36050	3.2239829	205.5352	204.3044	7.114811	33.12804
1715	5.35900	3.2240703	205.7912	204.5587	7.114957	33.13039
1716	5.35745	3.2240704	206.0103	204.7764	7.115156	33.13181
1717	5.35575	3.2241017	206.2508	205.0154	7.115357	33.13373
1718	5.35405	3.2240706	206.4947	205.2577	7.115591	33.13493
1719	5.35291	3.2241018	206.7286	205.4901	7.115724	33.13630
1720	5.35186	3.2241643	206.9570	205.7170	7.115827	33.13794
1721	5.35096	3.2242268	207.2007	205.9590	7.115912	33.13941
1722	5.35001	3.2242580	207.4385	206.1953	7.116019	33.14059
1723	5.34856	3.2243205	207.6667	206.4221	7.116172	33.14262
1724	5.34761	3.2243830	207.9012	206.6550	7.116263	33.14415
1725	5.34651	3.2244454	208.1264	206.8787	7.116372	33.14583
1726	5.34526	3.2244767	208.3793	207.1300	7.116517	33.14730
1727	5.34406	3.2245330	208.6045	207.3537	7.116642	33.14901
1728	5.34286	3.2245330	208.8393	207.5870	7.116798	33.15008
1729	5.34207	3.2245955	209.0641	207.8104	7.116869	33.15147
1730	5.34107	3.2246205	209.3109	208.0555	7.116987	33.15262
1731	5.33977	3.2246581	209.5576	208.3006	7.117135	33.15420
1732	5.33902	3.2246581	209.7889	208.5304	7.117234	33.15483
1733	5.33842	3.2247206	210.0266	208.7666	7.117281	33.15602
1734	5.33807	3.2247207	210.2641	209.0025	7.117330	33.15624
1735	5.33787	3.2247208	210.4925	209.2295	7.117360	33.15633
1736	5.33762	3.2247208	210.7210	209.4565	7.117397	33.15646
1737	5.33747	3.2247521	210.9554	209.6894	7.117404	33.15685
1738	5.33737	3.2247522	211.1775	209.9100	7.117422	33.15684
1739	5.33722	3.2247834	211.4030	210.1341	7.117429	33.15723
1740	5.33707	3.2247835	211.6403	210.3698	7.117453	33.15726
1741	5.33677	3.2247836	211.8717	210.5997	7.117496	33.15744
1742	5.33677	3.2248149	212.0999	210.8264	7.117485	33.15768
1743	5.33647	3.2248149	212.3376	211.0626	7.117528	33.15786
1744	5.33632	3.2248150	212.5722	211.2956	7.117552	33.15789
1745	5.33607	3.2248775	212.8189	211.5407	7.117556	33.15873
1746	5.33597	3.2248776	213.0986	211.8186	7.117574	33.15869
1747	5.33597	3.2249088	213.3452	212.0636	7.117564	33.15892
1748	5.33597	3.2249401	213.5918	212.3086	7.117553	33.15916
1749	5.33607	3.2249714	213.8145	212.5298	7.117529	33.15930
1750	5.33612	3.2249714	214.0489	212.7627	7.117528	33.15914
1751	5.33612	3.2249403	214.2740	212.9864	7.117550	33.15867
1752	5.33612	3.2250028	214.4995	213.2103	7.117522	33.15927
1753	5.33597	3.2250028	214.7250	213.4344	7.117546	33.15931
1754	5.33587	3.2250591	214.9561	213.6640	7.117534	33.15993
1755	5.33587	3.2250591	215.1937	213.9000	7.117539	33.15981
1756	5.33562	3.2250904	215.4253	214.1301	7.117559	33.16030
1757	5.33527	3.2251092	215.6718	214.3750	7.117598	33.16074
1758	5.33497	3.2251217	215.8879	214.5897	7.117634	33.16107
1759	5.33447	3.2251530	216.1192	214.8194	7.117685	33.16180
1760	5.33393	3.2251531	216.3600	215.0587	7.117760	33.16223
1761	5.33348	3.2251844	216.5915	215.2887	7.117804	33.16291
1762	5.33323	3.2251844	216.8167	215.5125	7.117841	33.16305
1763	5.33288	3.2252157	217.0509	215.7452	7.117873	33.16363
1764	5.33273	3.2252158	217.2733	215.9661	7.117897	33.16367
1765	5.33233	3.2252159	217.5107	216.2019	7.117953	33.16395
1766	5.33213	3.2252159	217.7393	216.4290	7.117983	33.16403
1767	5.33198	3.2252472	217.9647	216.6529	7.117990	33.16442
1768	5.33178	3.2252473	218.1806	216.8674	7.118020	33.16451
1769	5.33168	3.2252473	218.4274	217.1126	7.118038	33.16449
1770	5.33158	3.2252786	218.6497	217.3334	7.118039	33.16484
1771	5.33138	3.2252787	218.8903	217.5725	7.118070	33.16491
1772	5.33113	3.2253100	219.1154	217.7961	7.118090	33.16540
1773	5.33093	3.2253100	219.3530	218.0321	7.118120	33.16548
1774	5.33063	3.2253413	219.5754	218.2530	7.118146	33.16603
1775	5.33048	3.2253414	219.7975	218.4738	7.118170	33.16606
1776	5.33033	3.2253726	220.0289	218.7036	7.118177	33.16645
1777	5.33013	3.2253727	220.2512	218.9245	7.118208	33.16654
1778	5.33013	3.2253728	220.4704	219.1422	7.118213	33.16643
1779	5.33003	3.2254352	220.7049	219.3752	7.118197	33.16713
1780	5.32983	3.2254353	220.9362	219.6049	7.118228	33.16721
1781	5.32968	3.2254354	221.1705	219.8377	7.118252	33.16724
1782	5.32958	3.2254667	221.4055	220.0712	7.118253	33.16758
1783	5.32943	3.2254667	221.6337	220.2979	7.118277	33.16761
1784	5.32923	3.2255230	221.8499	220.5127	7.118277	33.16834
1785	5.32913	3.2255230	222.0842	220.7455	7.118295	33.16833
1786	5.32908	3.2255668	222.3159	220.9756	7.118283	33.16876
1787	5.32898	3.2255544	222.5441	221.2023	7.118308	33.16860
1788	5.32878	3.2255544	222.7816	221.4383	7.118338	33.16868
1789	5.32873	3.2255545	223.0070	221.6622	7.118350	33.16862
1790	5.32838	3.2256170	223.2659	221.9194	7.118366	33.16955
1791	5.32798	3.2256171	223.5092	222.1611	7.118422	33.16982
1792	5.32763	3.2256483	223.7465	222.3969	7.118454	33.17041
1793	5.32713	3.2256796	223.9722	222.6210	7.118505	33.17114
1794	5.32668	3.2257109	224.2035	222.8508	7.118550	33.17183
1795	5.32634	3.2257110	224.4292	223.0751	7.118599	33.17206
1796	5.32614	3.2257110	224.6602	223.3045	7.118629	33.17215
1797	5.32594	3.2257423	224.8977	223.5404	7.118643	33.17258
1798	5.32584	3.2257424	225.1293	223.7705	7.118661	33.17257
1799	5.32574	3.2257737	225.3697	224.0094	7.118662	33.17290
1800	5.32554	3.2258049	225.5981	224.2362	7.118676	33.17334
1801	5.32509	3.2258362	225.8355	224.4720	7.118721	33.17402
1802	5.32444	3.2258987	226.0608	224.6959	7.118774	33.17527
1803	5.32379	3.2258988	226.2923	224.9259	7.118860	33.17579
1804	5.32299	3.2259862	226.5267	225.1588	7.118919	33.17746
1805	5.32174	3.2259863	226.7581	225.3886	7.119080	33.17858
1806	5.32079	3.2259864	226.9896	225.6186	7.119204	33.17941
1807	5.31994	3.2260176	227.2270	225.8544	7.119299	33.18048
1808	5.31955	3.2260489	227.4584	226.0843	7.119338	33.18112
1809	5.31930	3.2260490	227.6897	226.3141	7.119374	33.18125
1810	5.31910	3.2260491	227.9182	226.5411	7.119405	33.18134
1811	5.31875	3.2261115	228.1616	226.7829	7.119421	33.18227
1812	5.31825	3.2261428	228.4085	227.0281	7.119472	33.18300
1813	5.31775	3.2261741	228.6429	227.2610	7.119523	33.18373
1814	5.31710	3.2261742	228.8928	227.5093	7.119610	33.18425
1815	5.31620	3.2262367	229.1208	227.7358	7.119695	33.18574
1816	5.31470	3.2262492	229.3555	227.9689	7.119881	33.18725
1817	5.31356	3.2262992	229.6050	228.2168	7.120003	33.18883
1818	5.31281	3.2263305	229.8215	228.4318	7.120085	33.18982
1819	5.31226	3.2263306	230.0619	228.6706	7.120159	33.19024
1820	5.31191	3.2263307	230.2961	228.9033	7.120208	33.19047
1821	5.31176	3.2263619	230.5365	229.1421	7.120216	33.19086
1822	5.31161	3.2263620	230.7621	229.3662	7.120240	33.19089
1823	5.31161	3.2263621	230.9995	229.6021	7.120246	33.19077
1824	5.31156	3.2263934	231.2277	229.8287	7.120240	33.19107
1825	5.31181	3.2264246	231.4716	230.0710	7.120198	33.19105
1826	5.31181	3.2264247	231.7031	230.3010	7.120204	33.19094
1827	5.31181	3.2264248	231.9375	230.5339	7.120209	33.19082
1828	5.31166	3.2264248	232.1749	230.7697	7.120233	33.19085
1829	5.31166	3.2264249	232.3972	230.9905	7.120238	33.19074
1830	5.31176	3.2264499	232.6225	231.2143	7.120218	33.19082
1831	5.31166	3.2264500	232.8510	231.4413	7.120236	33.19080
1832	5.31176	3.2264501	233.0702	231.6591	7.120228	33.19060
1833	5.31146	3.2265126	233.2984	231.8858	7.120238	33.19149
1834	5.31136	3.2265126	233.5512	232.1368	7.120256	33.19147
1835	5.31121	3.2264815	233.8131	232.3970	7.120297	33.19113
1836	5.31131	3.2265128	234.0779	232.6601	7.120274	33.19125
1837	5.31131	3.2265441	234.3154	232.8960	7.120263	33.19149
1838	5.31116	3.2265441	234.5466	233.1257	7.120287	33.19153
1839	5.31086	3.2266066	234.7720	233.3496	7.120297	33.19242
1840	5.31041	3.2266067	235.0035	233.5795	7.120358	33.19275
1841	5.30981	3.2266692	235.2410	233.8155	7.120405	33.19394
1842	5.30861	3.2268253	235.4633	234.0364	7.120477	33.19679
1843	5.30507	3.2269190	235.6916	234.2631	7.120875	33.20125
1844	5.30063	3.2270065	235.9109	234.4810	7.121389	33.20654
1845	5.29714	3.2269754	236.1300	234.6986	7.121847	33.20953
1846	5.29479	3.2270379	236.3585	234.9256	7.122112	33.21245
1847	5.29325	3.2270317	236.5930	235.1585	7.122315	33.21380
1848	5.29215	3.2270380	236.8243	235.3882	7.122454	33.21484
1849	5.29145	3.2270693	237.0649	235.6273	7.122530	33.21577
1850	5.29105	3.2271318	237.2961	235.8569	7.122552	33.21676
1851	5.29030	3.2274127	237.5215	236.0809	7.122501	33.22060
1852	5.28846	3.2273816	237.7620	236.3198	7.122754	33.22195
1853	5.28726	3.2274378	238.0026	236.5587	7.122879	33.22366
1854	5.28631	3.2274691	238.2280	236.7827	7.122986	33.22484
1855	5.28576	3.2274692	238.4595	237.0127	7.123060	33.22527
1856	5.28536	3.2275005	238.6847	237.2364	7.123099	33.22591
1857	5.28516	3.2275006	238.9251	237.4752	7.123129	33.22599
1858	5.28511	3.2275006	239.1596	237.7081	7.123141	33.22592
1859	5.28506	3.2275319	239.3788	237.9258	7.123136	33.22622
1860	5.28511	3.2275320	239.6101	238.1556	7.123135	33.22605
1861	5.28526	3.2275008	239.8448	238.3887	7.123138	33.22543
1862	5.28531	3.2275009	240.0731	238.6155	7.123137	33.22527
1863	5.28551	3.2275010	240.3135	238.8544	7.123118	33.22495
1864	5.28551	3.2275011	240.5447	239.0840	7.123123	33.22484
1865	5.28556	3.2275323	240.7642	239.3020	7.123105	33.22504
1866	5.28561	3.2275636	241.0046	239.5408	7.123088	33.22522
1867	5.28546	3.2275949	241.2540	239.7886	7.123096	33.22561
1868	5.28521	3.2275950	241.4738	240.0069	7.123132	33.22574
1869	5.28496	3.2276574	241.6958	240.2274	7.123135	33.22659
1870	5.28486	3.2276887	241.9301	240.4602	7.123136	33.22693
1871	5.28467	3.2276888	242.1679	240.6964	7.123167	33.22701
1872	5.28457	3.2277201	242.3903	240.9173	7.123168	33.22736
1873	5.28452	3.2277513	242.6185	241.1440	7.123163	33.22765
1874	5.28432	3.2278138	242.8436	241.3676	7.123160	33.22845
1875	5.28382	3.2278139	243.0783	241.6007	7.123227	33.22882
1876	5.28357	3.2278764	243.3097	241.8306	7.123231	33.22967
1877	5.28342	3.2278765	243.5561	242.0753	7.123255	33.22970
1878	5.28342	3.2278765	243.8028	242.3204	7.123261	33.22957
1879	5.28322	3.2279078	244.0798	242.5955	7.123275	33.22999
1880	5.28322	3.2279079	244.3236	242.8377	7.123281	33.22987
1881	5.28322	3.2279454	244.5611	243.0736	7.123267	33.23018
1882	5.28312	3.2279330	244.7832	243.2943	7.123291	33.23002
1883	5.28302	3.2279331	245.0116	243.5211	7.123309	33.23001
1884	5.28297	3.2279332	245.2337	243.7418	7.123320	33.22995
1885	5.28302	3.2279644	245.4622	243.9687	7.123302	33.23014
1886	5.28297	3.2279957	245.6965	244.2015	7.123297	33.23043
1887	5.28297	3.2279958	245.9160	244.4195	7.123303	33.23032
1888	5.28287	3.2279959	246.1503	244.6523	7.123320	33.23031
1889	5.28272	3.2279959	246.3755	244.8760	7.123344	33.23034
1890	5.28287	3.2280272	246.6069	245.1058	7.123314	33.23044
1891	5.28297	3.2280273	246.8386	245.3359	7.123307	33.23022
1892	5.28302	3.2280273	247.0700	245.5658	7.123306	33.23006
1893	5.28322	3.2280586	247.3043	245.7985	7.123270	33.23010
1894	5.28312	3.2280587	247.5295	246.0222	7.123288	33.23009
1895	5.28312	3.2280588	247.7549	246.2461	7.123293	33.22998
1896	5.28317	3.2280588	247.9742	246.4639	7.123292	33.22982
1897	5.28317	3.2281213	248.2087	246.6969	7.123264	33.23041
1898	5.28322	3.2280902	248.4366	246.9233	7.123280	33.22990
1899	5.28327	3.2280903	248.6804	247.1655	7.123279	33.22973
1900	5.28317	3.2280903	248.9029	247.3865	7.123297	33.22971
1901	5.28322	3.2281528	249.1341	247.6161	7.123263	33.23026
1902	5.28337	3.2281529	249.3684	247.8489	7.123249	33.23000
1903	5.28332	3.2281529	249.5817	248.0607	7.123261	33.22994
1904	5.28337	3.2281530	249.8223	248.2997	7.123260	33.22977
1905	5.28332	3.2281531	250.0535	248.5293	7.123272	33.22971
1906	5.28332	3.2281532	250.2820	248.7563	7.123277	33.22959
1907	5.28327	3.2282156	250.5165	248.9893	7.123255	33.23024
1908	5.28322	3.2282157	250.7416	249.2129	7.123267	33.23018
1909	5.28332	3.2282158	250.9763	249.4460	7.123260	33.22996
1910	5.28342	3.2282471	251.2076	249.6757	7.123236	33.23011
1911	5.28352	3.2282471	251.4299	249.8965	7.123229	33.22990
1912	5.28347	3.2282160	251.6674	250.1324	7.123257	33.22947
1913	5.28362	3.2282473	251.8866	250.3501	7.123227	33.22957
1914	5.28372	3.2282473	252.1091	250.5712	7.123219	33.22936
1915	5.28377	3.2282786	252.3250	250.7857	7.123201	33.22956
1916	5.28367	3.2282475	252.5535	251.0126	7.123236	33.22919
1917	5.28382	3.2282725	252.7726	251.2302	7.123209	33.22922
1918	5.28382	3.2282788	252.9977	251.4538	7.123211	33.22918
1919	5.28387	3.2283101	253.2200	251.6746	7.123193	33.22938
1920	5.28392	3.2283102	253.4273	251.8805	7.123192	33.22922
1921	5.28382	3.2283414	253.6560	252.1077	7.123193	33.22956
1922	5.28392	3.2283415	253.9020	252.3521	7.123186	33.22934
1923	5.28402	3.2283728	254.1550	252.6033	7.123163	33.22948
1924	5.28392	3.2283729	254.3893	252.8361	7.123181	33.22946
1925	5.28402	3.2283729	254.6177	253.0629	7.123173	33.22925
1926	5.28392	3.2283730	254.8459	253.2896	7.123191	33.22923
1927	5.28397	3.2283731	255.0530	253.4953	7.123190	33.22908
1928	5.28402	3.2284293	255.2605	253.7014	7.123158	33.22957
1929	5.28397	3.2284294	255.4826	253.9221	7.123170	33.22951
1930	5.28407	3.2284294	255.7108	254.1486	7.123162	33.22930
1931	5.28407	3.2284295	255.9332	254.3695	7.123168	33.22919
1932	5.28417	3.2284608	256.1523	254.5872	7.123144	33.22934
1933	5.28402	3.2284609	256.3806	254.8140	7.123168	33.22937
1934	5.28407	3.2284609	256.5937	255.0256	7.123166	33.22922
1935	5.28402	3.2284610	256.7614	255.1922	7.123176	33.22918
1936	5.28412	3.2284610	256.8495	255.2797	7.123166	33.22904
1937	5.28417	3.2284922	256.8311	255.2615	7.123143	33.22936
1938	5.28437	3.2285234	256.7158	255.1470	7.123098	33.22957
1939	5.28457	3.2286169	256.5272	254.9596	7.123019	33.23054
1940	5.28511	3.2286793	256.3234	254.7572	7.122912	33.23080
1941	5.28576	3.2287729	256.1351	254.5701	7.122777	33.23132
1942	5.28656	3.2287416	255.9617	254.3979	7.122690	33.23026
1943	5.28701	3.2286791	255.8003	254.2376	7.122663	33.22919
1944	5.28726	3.2286791	255.6484	254.0867	7.122628	33.22901
1945	5.28696	3.2285854	255.4844	253.9238	7.122712	33.22832
1946	5.28676	3.2285541	255.3141	253.7546	7.122750	33.22825
1947	5.28651	3.2285541	255.1494	253.5911	7.122777	33.22858
1948	5.28631	3.2285852	254.9793	253.4221	7.122781	33.22922
1949	5.28626	3.2285852	254.8180	253.2619	7.122784	33.22935
1950	5.28626	3.2285851	254.6600	253.1050	7.122780	33.22942
1951	5.28641	3.2285851	254.4959	252.9420	7.122758	33.22936
1952	5.28661	3.2285538	254.3284	252.7756	7.122746	33.22889
1953	5.28656	3.2285538	254.1614	252.6097	7.122748	33.22902
1954	5.28656	3.2285350	254.0030	252.4524	7.122754	33.22888
1955	5.28656	3.2285225	253.8603	252.3107	7.122758	33.22881
1956	5.28646	3.2284600	253.7358	252.1869	7.122801	33.22826
1957	5.28616	3.2284912	253.6079	252.0599	7.122818	33.22898
1958	5.28606	3.2284911	253.4527	251.9057	7.122827	33.22915
1959	5.28601	3.2284599	253.3006	251.7547	7.122847	33.22892
1960	5.28596	3.2285535	253.1333	251.5885	7.122799	33.23012
1961	5.28621	3.2285846	252.9812	251.4374	7.122748	33.23031
1962	5.28651	3.2285534	252.8202	251.2775	7.122723	33.22973
1963	5.28686	3.2285221	252.6742	251.1324	7.122693	33.22910
1964	5.28686	3.2285221	252.5130	250.9723	7.122689	33.22918
1965	5.28671	3.2284908	252.3489	250.8093	7.122721	33.22906
1966	5.28681	3.2284907	252.1877	250.6492	7.122704	33.22904
1967	5.28686	3.2284595	252.0203	250.4830	7.122711	33.22871
1968	5.28671	3.2285219	251.8531	250.3168	7.122692	33.22966
1969	5.28691	3.2284906	251.6736	250.1386	7.122680	33.22919
1970	5.28706	3.2285217	251.4914	249.9576	7.122640	33.22949
1971	5.28726	3.2284905	251.3084	249.7759	7.122628	33.22903
1972	5.28716	3.2284280	251.1197	249.5884	7.122669	33.22851
1973	5.28696	3.2284279	250.9347	249.4046	7.122690	33.22880
1974	5.28671	3.2284279	250.7459	249.2171	7.122717	33.22914
1975	5.28656	3.2284278	250.5666	249.0390	7.122731	33.22937
1976	5.28656	3.2284278	250.3780	248.8517	7.122727	33.22947
1977	5.28661	3.2284028	250.1922	248.6672	7.122730	33.22923
1978	5.28651	3.2283403	250.0157	248.4918	7.122771	33.22870
1979	5.28631	3.2284026	249.8426	248.3199	7.122759	33.22970
1980	5.28616	3.2283402	249.6662	248.1446	7.122807	33.22922
1981	5.28621	3.2283713	249.4899	247.9696	7.122780	33.22961
1982	5.28626	3.2284025	249.3073	247.7882	7.122753	33.23001
1983	5.28646	3.2283400	249.1280	247.6101	7.122757	33.22919
1984	5.28646	3.2284024	248.9423	247.4255	7.122719	33.22999
1985	5.28656	3.2283399	248.7600	247.2445	7.122736	33.22927
1986	5.28661	3.2283086	248.5712	247.0570	7.122742	33.22896
1987	5.28646	3.2283086	248.3826	246.8697	7.122756	33.22920
1988	5.28631	3.2283397	248.1942	246.6825	7.122754	33.22980
1989	5.28656	3.2282773	248.0144	246.5039	7.122752	33.22893
1990	5.28621	3.2282397	247.8261	246.3168	7.122811	33.22894
1991	5.28596	3.2282147	247.6466	246.1386	7.122852	33.22899
1992	5.28566	3.2282459	247.4609	245.9541	7.122868	33.22974
1993	5.28581	3.2282146	247.2755	245.7699	7.122862	33.22933
1994	5.28576	3.2281521	247.0899	245.5856	7.122897	33.22875
1995	5.28561	3.2281833	246.9016	245.3985	7.122895	33.22935
1996	5.28546	3.2281832	246.7128	245.2110	7.122909	33.22959
1997	5.28536	3.2281832	246.5212	245.0206	7.122917	33.22979
1998	5.28551	3.2282143	246.3145	244.8153	7.122877	33.23010
1999	5.28576	3.2282143	246.1165	244.6187	7.122841	33.22995
2000	5.28586	3.2281518	245.9188	244.4223	7.122857	33.22924
2001	5.28571	3.2281829	245.7182	244.2230	7.122855	33.22984
2002	5.28561	3.2281829	245.5267	244.0328	7.122863	33.23003
2003	5.28541	3.2281204	245.3166	243.8241	7.122916	33.22962
2004	5.28551	3.2280891	245.1249	243.6337	7.122916	33.22926
2005	5.28526	3.2281515	244.9241	243.4343	7.122909	33.23032
2006	5.28536	3.2281202	244.7173	243.2288	7.122909	33.22997
2007	5.28541	3.2280889	244.5258	243.0386	7.122915	33.22966
2008	5.28526	3.2280889	244.3340	242.8480	7.122929	33.22990
2009	5.28521	3.2280576	244.1395	242.6549	7.122947	33.22969
2010	5.28506	3.2280264	243.9450	242.4616	7.122978	33.22958
2011	5.28491	3.2280263	243.7258	242.2439	7.122992	33.22984
2012	5.28511	3.2280262	243.5035	242.0231	7.122962	33.22975
2013	5.28531	3.2280574	243.2814	241.8025	7.122915	33.23002
2014	5.28571	3.2280261	243.0868	241.6091	7.122877	33.22936
2015	5.28591	3.2280260	242.8984	241.4220	7.122848	33.22926
2016	5.28571	3.2279323	242.7006	241.2255	7.122918	33.22849
2017	5.28541	3.2279073	242.5059	241.0322	7.122964	33.22860
2018	5.28536	3.2279322	242.3052	240.8328	7.122953	33.22903
2019	5.28566	3.2279322	242.0981	240.6271	7.122910	33.22884
2020	5.28591	3.2278759	241.9006	240.4308	7.122905	33.22805
2021	5.28621	3.2278447	241.7088	240.2404	7.122879	33.22749
2022	5.28631	3.2277822	241.5143	240.0471	7.122896	33.22677
2023	5.28621	3.2278133	241.3285	239.8626	7.122887	33.22732
2024	5.28641	3.2277821	241.1312	239.6666	7.122874	33.22686
2025	5.28646	3.2277820	240.9333	239.4700	7.122864	33.22691
2026	5.28646	3.2277507	240.7416	239.2796	7.122876	33.22665
2027	5.28651	3.2277819	240.5351	239.0745	7.122848	33.22706
2028	5.28656	3.2276882	240.3401	238.8808	7.122887	33.22604
2029	5.28656	3.2277194	240.1390	238.6810	7.122866	33.22650
2030	5.28666	3.2276881	239.9385	238.4818	7.122866	33.22614
2031	5.28686	3.2276880	239.7346	238.2793	7.122836	33.22604
2032	5.28716	3.2276880	239.5430	238.0889	7.122794	33.22584
2033	5.28726	3.2276567	239.3363	237.8836	7.122793	33.22549
2034	5.28731	3.2275942	239.1415	237.6901	7.122816	33.22482
2035	5.28736	3.2275942	238.9407	237.4907	7.122805	33.22487
2036	5.28756	3.2275941	238.7522	237.3034	7.122776	33.22477
2037	5.28776	3.2275628	238.5453	237.0979	7.122763	33.22432
2038	5.28766	3.2275004	238.3568	236.9106	7.122804	33.22380
2039	5.28776	3.2275315	238.1591	236.7142	7.122770	33.22415
2040	5.28771	3.2275626	237.9581	236.5146	7.122755	33.22466
2041	5.28791	3.2275626	237.7514	236.3092	7.122726	33.22456
2042	5.28801	3.2275313	237.5476	236.1068	7.122725	33.22421
2043	5.28831	3.2275000	237.3346	235.8953	7.122699	33.22366
2044	5.28851	3.2274688	237.1399	235.7018	7.122687	33.22321
2045	5.28871	3.2273189	236.9453	235.5085	7.122737	33.22140
2046	5.28896	3.2273501	236.7476	235.3121	7.122685	33.22160
2047	5.28945	3.2273812	236.5495	235.1153	7.122601	33.22156
2048	5.28995	3.2273187	236.3487	234.9159	7.122567	33.22046
2049	5.29055	3.2272563	236.1540	234.7225	7.122521	33.21925
2050	5.29075	3.2272250	235.9566	234.5263	7.122508	33.21879
2051	5.29130	3.2271937	235.7618	234.3328	7.122452	33.21799
2052	5.29180	3.2271625	235.5642	234.1365	7.122402	33.21724
2053	5.29230	3.2271000	235.3605	233.9342	7.122368	33.21613
2054	5.29315	3.2270687	235.1599	233.7349	7.122274	33.21503
2055	5.29469	3.2269189	234.9588	233.5352	7.122156	33.21189
2056	5.29684	3.2268876	234.7548	233.3325	7.121899	33.20951
2057	5.29908	3.2268563	234.5514	233.1305	7.121631	33.20704
2058	5.30123	3.2267314	234.3505	232.9308	7.121424	33.20359
2059	5.30327	3.2267688	234.1495	232.7312	7.121144	33.20209
2060	5.30517	3.2267312	233.9580	232.5410	7.120922	33.19988
2061	5.30662	3.2267000	233.7634	232.3477	7.120754	33.19819
2062	5.30797	3.2266375	233.5717	232.1572	7.120614	33.19624
2063	5.30916	3.2266062	233.3617	231.9486	7.120476	33.19480
2064	5.31016	3.2265749	233.1427	231.7311	7.120363	33.19356
2065	5.31096	3.2266060	232.9296	231.5194	7.120242	33.19324
2066	5.31171	3.2266372	232.7382	231.3293	7.120127	33.19295
2067	5.31246	3.2265747	232.5407	231.1330	7.120062	33.19159
2068	5.31296	3.2264810	232.3365	230.9302	7.120045	33.19013
2069	5.31316	3.2265122	232.1326	230.7277	7.119998	33.19039
2070	5.31346	3.2265121	231.9261	230.5225	7.119956	33.19020
2071	5.31376	3.2265432	231.7340	230.3317	7.119898	33.19035
2072	5.31400	3.2265744	231.5334	230.1324	7.119845	33.19056
2073	5.31425	3.2265119	231.3328	229.9331	7.119843	33.18970
2074	5.31435	3.2264807	231.1319	229.7336	7.119842	33.18934
2075	5.31425	3.2265118	230.9342	229.5372	7.119833	33.18990
2076	5.31425	3.2264493	230.7364	229.3406	7.119862	33.18928
2077	5.31400	3.2264493	230.5358	229.1414	7.119889	33.18963
2078	5.31390	3.2264492	230.3502	228.9570	7.119897	33.18982
2079	5.31400	3.2263930	230.1493	228.7575	7.119910	33.18918
2080	5.31386	3.2264241	229.9425	228.5520	7.119907	33.18979
2081	5.31371	3.2264241	229.7448	228.3556	7.119921	33.19003
2082	5.31366	3.2263928	229.5378	228.1500	7.119939	33.18983
2083	5.31356	3.2263927	229.3340	227.9476	7.119947	33.19003
2084	5.31351	3.2264239	229.1212	227.7362	7.119932	33.19054
2085	5.31346	3.2263926	228.9202	227.5365	7.119950	33.19033
2086	5.31356	3.2263926	228.7225	227.3401	7.119933	33.19033
2087	5.31361	3.2263925	228.5218	227.1407	7.119922	33.19038
2088	5.31371	3.2263924	228.3239	226.9441	7.119905	33.19038
2089	5.31390	3.2263300	228.1141	226.7356	7.119908	33.18958
2090	5.31425	3.2263174	227.9284	226.5512	7.119867	33.18918
2091	5.31450	3.2262986	227.7277	226.3518	7.119841	33.18882
2092	5.31495	3.2262674	227.5301	226.1555	7.119797	33.18812
2093	5.31525	3.2262361	227.3293	225.9561	7.119772	33.18756
2094	5.31580	3.2262048	227.1284	225.7565	7.119715	33.18677
2095	5.31625	3.2262048	226.9278	225.5572	7.119654	33.18642
2096	5.31685	3.2261423	226.7238	225.3545	7.119608	33.18522
2097	5.31730	3.2261422	226.5261	225.1581	7.119547	33.18487
2098	5.31790	3.2261110	226.3253	224.9587	7.119484	33.18402
2099	5.31830	3.2261109	226.1151	224.7498	7.119429	33.18373
2100	5.31870	3.2260796	225.9144	224.5505	7.119392	33.18308
2101	5.31920	3.2260484	225.7076	224.3450	7.119341	33.18233
2102	5.31965	3.2260171	225.5162	224.1549	7.119297	33.18163
2103	5.31999	3.2260170	225.3092	223.9493	7.119249	33.18138
2104	5.32034	3.2259858	225.1116	223.7530	7.119217	33.18078
2105	5.32064	3.2259545	224.9107	223.5533	7.119192	33.18023
2106	5.32079	3.2259545	224.7190	223.3630	7.119168	33.18017
2107	5.32129	3.2258982	224.5212	223.1664	7.119131	33.17914
2108	5.32164	3.2259543	224.3206	222.9671	7.119053	33.17953
2109	5.32199	3.2258981	224.1289	222.7768	7.119035	33.17864
2110	5.32249	3.2258356	223.9312	222.5803	7.119001	33.17753
2111	5.32279	3.2258356	223.7275	222.3780	7.118959	33.17734
2112	5.32324	3.2258043	223.5233	222.1751	7.118915	33.17664
2113	5.32369	3.2257730	223.3194	221.9725	7.118871	33.17594
2114	5.32414	3.2257730	223.1130	221.7675	7.118810	33.17560
2115	5.32464	3.2257417	222.9059	221.5618	7.118759	33.17485
2116	5.32514	3.2256792	222.6837	221.3410	7.118725	33.17376
2117	5.32554	3.2257104	222.4646	221.1234	7.118653	33.17383
2118	5.32594	3.2256479	222.2578	220.9179	7.118632	33.17282
2119	5.32624	3.2256790	222.0658	220.7272	7.118573	33.17298
2120	5.32663	3.2256291	221.8653	220.5279	7.118545	33.17211
2121	5.32708	3.2255541	221.6678	220.3318	7.118524	33.17091
2122	5.32738	3.2256165	221.4695	220.1348	7.118449	33.17143
2123	5.32783	3.2255852	221.2754	219.9419	7.118405	33.17072
2124	5.32798	3.2255539	221.0714	219.7393	7.118398	33.17032
2125	5.32843	3.2255227	220.8676	219.5368	7.118354	33.16962
2126	5.32868	3.2254914	220.6607	219.3313	7.118335	33.16912
2127	5.32898	3.2255225	220.4628	219.1347	7.118276	33.16928
2128	5.32923	3.2254663	220.2618	218.9350	7.118270	33.16849
2129	5.32953	3.2254662	220.0521	218.7267	7.118228	33.16830
2130	5.32978	3.2254350	219.8512	218.5270	7.118209	33.16780
2131	5.33003	3.2254661	219.6415	218.3187	7.118156	33.16801
2132	5.33033	3.2254037	219.4316	218.1102	7.118147	33.16710
2133	5.33043	3.2254036	219.2308	217.9108	7.118130	33.16711
2134	5.33083	3.2254035	219.0299	217.7111	7.118075	33.16681
2135	5.33093	3.2253411	218.8474	217.5298	7.118092	33.16609
2136	5.33108	3.2253410	218.6463	217.3300	7.118068	33.16604
2137	5.33118	3.2253409	218.4519	217.1370	7.118051	33.16604
2138	5.33128	3.2253409	218.2477	216.9341	7.118034	33.16604
2139	5.33148	3.2253408	218.0502	216.7379	7.118005	33.16594
2140	5.33168	3.2253096	217.8436	216.5326	7.117992	33.16549
2141	5.33193	3.2252783	217.6455	216.3358	7.117972	33.16499
2142	5.33208	3.2253094	217.4387	216.1303	7.117932	33.16530
2143	5.33243	3.2252782	217.2290	215.9220	7.117900	33.16470
2144	5.33263	3.2252781	217.0128	215.7073	7.117870	33.16461
2145	5.33273	3.2252468	216.8089	215.5047	7.117870	33.16426
2146	5.33303	3.2252468	216.6052	215.3023	7.117828	33.16406
2147	5.33313	3.2252155	216.4074	215.1058	7.117827	33.16370
2148	5.33328	3.2252155	216.2066	214.9063	7.117804	33.16366
2149	5.33348	3.2251717	216.0057	214.7068	7.117798	33.16306
2150	5.33363	3.2251841	215.8018	214.5042	7.117767	33.16316
2151	5.33383	3.2251529	215.6104	214.3140	7.117755	33.16270
2152	5.33398	3.2251528	215.4126	214.1175	7.117731	33.16265
2153	5.33407	3.2251839	215.2147	213.9209	7.117698	33.16300
2154	5.33432	3.2251215	215.0109	213.7185	7.117695	33.16215
2155	5.33452	3.2251214	214.8160	213.5248	7.117666	33.16204
2156	5.33492	3.2251214	214.6093	213.3195	7.117611	33.16175
2157	5.33507	3.2250589	214.3994	213.1109	7.117621	33.16100
2158	5.33522	3.2250588	214.1895	212.9024	7.117597	33.16095
2159	5.33557	3.2250588	213.9764	212.6906	7.117548	33.16071
2160	5.33572	3.2250275	213.7667	212.4823	7.117541	33.16031
2161	5.33582	3.2250025	213.5688	212.2857	7.117538	33.16003
2162	5.33612	3.2250274	213.3679	212.0861	7.117482	33.16012
2163	5.33632	3.2249712	213.1581	211.8777	7.117482	33.15938
2164	5.33642	3.2249711	212.9571	211.6780	7.117465	33.15938
2165	5.33642	3.2250022	212.7625	211.4847	7.117444	33.15983
2166	5.33652	3.2249398	212.5679	211.2913	7.117460	33.15912
2167	5.33667	3.2250021	212.3823	211.1070	7.117404	33.15978
2168	5.33677	3.2249708	212.1631	210.8892	7.117403	33.15943
2169	5.33692	3.2249396	211.9529	210.6803	7.117396	33.15903
2170	5.33687	3.2249395	211.7279	210.4568	7.117397	33.15919
2171	5.33702	3.2249394	211.5181	210.2484	7.117374	33.15915
2172	5.33697	3.2248770	211.3144	210.0460	7.117408	33.15859
2173	5.33712	3.2248769	211.1101	209.8431	7.117385	33.15854
2174	5.33722	3.2248457	210.8943	209.6286	7.117384	33.15819
2175	5.33732	3.2248456	210.6846	209.4203	7.117367	33.15820
2176	5.33752	3.2248143	210.4836	209.2206	7.117354	33.15774
2177	5.33772	3.2248143	210.2770	209.0153	7.117324	33.15765
2178	5.33792	3.2247830	210.0851	208.8247	7.117311	33.15719
2179	5.33812	3.2247518	209.8901	208.6310	7.117298	33.15674
2180	5.33827	3.2247205	209.6988	208.4409	7.117292	33.15633
2181	5.33827	3.2247516	209.4949	208.2383	7.117270	33.15678
2182	5.33837	3.2247204	209.2970	208.0418	7.117270	33.15643
2183	5.33862	3.2247203	209.0934	207.8394	7.117234	33.15628
2184	5.33877	3.2246891	208.8892	207.6366	7.117227	33.15588
2185	5.33882	3.2246578	208.6793	207.4281	7.117233	33.15558
2186	5.33887	3.2246265	208.4666	207.2167	7.117238	33.15528
2187	5.33892	3.2246265	208.2538	207.0053	7.117227	33.15533
2188	5.33907	3.2245952	208.0467	206.7996	7.117220	33.15493
2189	5.33897	3.2245952	207.8490	206.6031	7.117228	33.15513
2190	5.33907	3.2245639	207.6513	206.4067	7.117228	33.15477
2191	5.33922	3.2245638	207.4565	206.2132	7.117204	33.15472
2192	5.33942	3.2245326	207.2618	206.0198	7.117192	33.15427
2193	5.33957	3.2245076	207.0548	205.8141	7.117181	33.15394
2194	5.33977	3.2244763	206.8600	205.6206	7.117169	33.15348
2195	5.33997	3.2244763	206.6683	205.4301	7.117139	33.15338
2196	5.34027	3.2244138	206.4586	205.2218	7.117130	33.15247
2197	5.34087	3.2243825	206.2547	205.0192	7.117067	33.15163
2198	5.34142	3.2243513	206.0567	204.8225	7.117010	33.15083
2199	5.34217	3.2243200	205.8347	204.6019	7.116928	33.14984
2200	5.34286	3.2242576	205.6280	204.3966	7.116869	33.14854
2201	5.34381	3.2242263	205.4179	204.1879	7.116763	33.14735
2202	5.34486	3.2241638	205.2170	203.9883	7.116660	33.14570
2203	5.34566	3.2241326	205.0132	203.7858	7.116572	33.14466
2204	5.34641	3.2241325	204.8063	203.5802	7.116474	33.14402
2205	5.34726	3.2240700	204.6117	203.3869	7.116396	33.14257
2206	5.34826	3.2240450	204.4109	203.1874	7.116280	33.14140
2207	5.34926	3.2240138	204.2040	202.9818	7.116167	33.14016
2208	5.35001	3.2239825	204.0031	202.7822	7.116086	33.13916
2209	5.35081	3.2239824	203.8023	202.5827	7.115981	33.13847
2210	5.35166	3.2239200	203.5950	202.3768	7.115904	33.13703
2211	5.35231	3.2239199	203.3916	202.1746	7.115818	33.13649
2212	5.35286	3.2239198	203.1877	201.9721	7.115744	33.13604
2213	5.35321	3.2238886	202.9745	201.7602	7.115712	33.13545
2214	5.35360	3.2238573	202.7649	201.5520	7.115674	33.13480
2215	5.35400	3.2238261	202.5550	201.3435	7.115636	33.13416
2216	5.35425	3.2238260	202.3479	201.1377	7.115600	33.13401
2217	5.35465	3.2237947	202.1411	200.9322	7.115562	33.13336
2218	5.35510	3.2237635	201.9313	200.7238	7.115517	33.13267
2219	5.35565	3.2237634	201.7394	200.5332	7.115444	33.13222
2220	5.35620	3.2236698	201.5445	200.3395	7.115421	33.13071
2221	5.35685	3.2236697	201.3315	200.1278	7.115335	33.13017
2222	5.35740	3.2236696	201.1247	199.9224	7.115262	33.12973
2223	5.35805	3.2236072	200.9269	199.7259	7.115209	33.12848
2224	5.35880	3.2235510	200.7261	199.5264	7.115141	33.12720
2225	5.35955	3.2235509	200.5256	199.3272	7.115042	33.12656
2226	5.36025	3.2234884	200.3248	199.1277	7.114984	33.12526
2227	5.36115	3.2234884	200.1146	198.9188	7.114866	33.12447
2228	5.36170	3.2234571	199.9015	198.7071	7.114809	33.12368
2229	5.36250	3.2234570	199.6917	198.4987	7.114705	33.12300
2230	5.36335	3.2233821	199.4845	198.2928	7.114634	33.12141
2231	5.36420	3.2233321	199.2749	198.0845	7.114549	33.12010
2232	5.36505	3.2233009	199.0710	197.8820	7.114455	33.11901
2233	5.36600	3.2232072	198.8700	197.6823	7.114382	33.11711
2234	5.36675	3.2231760	198.6724	197.4860	7.114300	33.11611
2235	5.36750	3.2231759	198.4777	197.2926	7.114202	33.11547
2236	5.36820	3.2231197	198.2798	197.0959	7.114140	33.11424
2237	5.36885	3.2230885	198.0881	196.9054	7.114071	33.11334
2238	5.36940	3.2230260	197.8904	196.7090	7.114031	33.11218
2239	5.37000	3.2230259	197.6894	196.5093	7.113951	33.11169
2240	5.37069	3.2229947	197.4763	196.2975	7.113876	33.11075
2241	5.37124	3.2229946	197.2758	196.0984	7.113802	33.11031
2242	5.37184	3.2229634	197.0627	195.8866	7.113739	33.10946
2243	5.37259	3.2229009	196.8466	195.6719	7.113674	33.10812
2244	5.37329	3.2228073	196.6368	195.4634	7.113631	33.10647
2245	5.37429	3.2227448	196.4236	195.2517	7.113535	33.10488
2246	5.37534	3.2227448	196.2110	195.0404	7.113399	33.10395
2247	5.37609	3.2227135	196.0070	194.8377	7.113317	33.10296
2248	5.37704	3.2226573	195.8062	194.6382	7.113223	33.10148
2249	5.37789	3.2226260	195.6024	194.4357	7.113129	33.10039
2250	5.37874	3.2226260	195.4074	194.2419	7.113018	33.09964
2251	5.37929	3.2225947	195.2190	194.0548	7.112962	33.09884
2252	5.37989	3.2225323	195.0153	193.8524	7.112916	33.09764
2253	5.38049	3.2225322	194.8142	193.6526	7.112836	33.09715
2254	5.38099	3.2225009	194.6105	193.4502	7.112786	33.09640
2255	5.38149	3.2224697	194.4065	193.2476	7.112735	33.09565
2256	5.38214	3.2224696	194.1995	193.0418	7.112649	33.09512
2257	5.38269	3.2224072	193.9927	192.8364	7.112609	33.09397
2258	5.38369	3.2223759	193.7797	192.6247	7.112496	33.09273
2259	5.38464	3.2223135	193.5604	192.4069	7.112405	33.09119
2260	5.38594	3.2222822	193.3477	192.1955	7.112254	33.08966
2261	5.38699	3.2222510	193.1377	191.9868	7.112135	33.08838
2262	5.38814	3.2222259	192.9338	191.7843	7.112000	33.08706
2263	5.38924	3.2221947	192.7301	191.5819	7.111875	33.08572
2264	5.39014	3.2221634	192.5353	191.3884	7.111774	33.08458
2265	5.39099	3.2221633	192.3407	191.1949	7.111664	33.08383
2266	5.39154	3.2221633	192.1456	191.0012	7.111590	33.08339
2267	5.39229	3.2221320	191.9479	190.8047	7.111509	33.08239
2268	5.39284	3.2221008	191.7501	190.6081	7.111452	33.08159
2269	5.39344	3.2220383	191.5463	190.4056	7.111406	33.08039
2270	5.39389	3.2220383	191.3425	190.2032	7.111345	33.08005
2271	5.39424	3.2220382	191.1323	189.9944	7.111296	33.07981
2272	5.39474	3.2220070	190.9195	189.7829	7.111245	33.07907
2273	5.39499	3.2220069	190.7003	189.5651	7.111209	33.07893
2274	5.39544	3.2219756	190.4782	189.3445	7.111164	33.07824
2275	5.39599	3.2219132	190.2409	189.1087	7.111123	33.07711
2276	5.39659	3.2218196	190.0155	188.8847	7.111093	33.07556
2277	5.39789	3.2217010	189.8181	188.6886	7.110989	33.07303
2278	5.39974	3.2215575	189.6234	188.4951	7.110830	33.06967
2279	5.40194	3.2214825	189.4286	188.3016	7.110590	33.06675
2280	5.40419	3.2215136	189.2278	188.1021	7.110288	33.06499
2281	5.40575	3.2214512	189.0269	187.9025	7.110123	33.06285
2282	5.40685	3.2213888	188.8262	187.7030	7.110014	33.06116
2283	5.40820	3.2213326	188.6253	187.5034	7.109871	33.05929
2284	5.40915	3.2213325	188.4152	187.2946	7.109747	33.05846
2285	5.41010	3.2212701	188.2112	187.0920	7.109657	33.05691
2286	5.41105	3.2212700	188.0014	186.8835	7.109534	33.05608
2287	5.41180	3.2212387	187.8007	186.6840	7.109452	33.05509
2288	5.41235	3.2212075	187.5876	186.4723	7.109395	33.05429
2289	5.41290	3.2212074	187.3776	186.2637	7.109321	33.05386
2290	5.41320	3.2211762	187.1616	186.0491	7.109295	33.05331
2291	5.41355	3.2211761	186.9546	185.8434	7.109247	33.05307
2292	5.41375	3.2211448	186.7448	185.6350	7.109234	33.05262
2293	5.41405	3.2211448	186.5377	185.4292	7.109191	33.05243
2294	5.41400	3.2211447	186.3310	185.2238	7.109193	33.05258
2295	5.41405	3.2211135	186.1392	185.0332	7.109199	33.05227
2296	5.41415	3.2210822	185.9414	184.8367	7.109198	33.05192
2297	5.41425	3.2210510	185.7406	184.6372	7.109198	33.05156
2298	5.41410	3.2211133	185.5397	184.4376	7.109179	33.05252
2299	5.41425	3.2210820	185.3391	184.2382	7.109172	33.05212
2300	5.41435	3.2210820	185.1320	184.0324	7.109155	33.05212
2301	5.41445	3.2211006	184.9283	183.8300	7.109128	33.05233
2302	5.41440	3.2210819	184.7275	183.6305	7.109139	33.05227
2303	5.41440	3.2210506	184.5236	183.4279	7.109151	33.05202
2304	5.41450	3.2210505	184.3227	183.2283	7.109134	33.05202
2305	5.41450	3.2210505	184.1096	183.0166	7.109129	33.05212
2306	5.41460	3.2210192	183.9058	182.8140	7.109128	33.05177
2307	5.41450	3.2210192	183.7050	182.6145	7.109136	33.05197
2308	5.41445	3.2210191	183.5162	182.4269	7.109138	33.05211
2309	5.41450	3.2210191	183.3184	182.2305	7.109127	33.05216
2310	5.41455	3.2210190	183.1267	182.0399	7.109117	33.05220
2311	5.41460	3.2209566	182.9230	181.8375	7.109139	33.05155
2312	5.41465	3.2209565	182.7252	181.6410	7.109128	33.05159
2313	5.41475	3.2209564	182.5186	181.4357	7.109111	33.05160
2314	5.41485	3.2209252	182.3204	181.2388	7.109110	33.05124
2315	5.41510	3.2209002	182.1136	181.0332	7.109087	33.05081
2316	5.41530	3.2209001	181.9128	180.8337	7.109058	33.05072
2317	5.41550	3.2208689	181.6938	180.6162	7.109044	33.05027
2318	5.41560	3.2208376	181.4775	180.4013	7.109043	33.04993
2319	5.41600	3.2208376	181.2799	180.2049	7.108989	33.04963
2320	5.41625	3.2208063	181.0788	180.0051	7.108970	33.04913
2321	5.41665	3.2207439	180.8781	179.8057	7.108948	33.04813
2322	5.41705	3.2207438	180.6653	179.5942	7.108893	33.04784
2323	5.41745	3.2207126	180.4581	179.3883	7.108855	33.04719
2324	5.41815	3.2206502	180.2483	179.1798	7.108796	33.04590
2325	5.41860	3.2206501	180.0383	178.9712	7.108735	33.04556
2326	5.41940	3.2205877	179.8315	178.7657	7.108663	33.04416
2327	5.42040	3.2204629	179.6304	178.5659	7.108600	33.04186
2328	5.42180	3.2204067	179.4267	178.3635	7.108450	33.03994
2329	5.42356	3.2203442	179.2226	178.1607	7.108260	33.03761
2330	5.42556	3.2202818	178.9976	177.9371	7.108038	33.03504
2331	5.42726	3.2202194	178.7756	177.7166	7.107854	33.03277
2332	5.42891	3.2201569	178.5625	177.5047	7.107676	33.03054
2333	5.43056	3.2200321	178.3586	177.3022	7.107531	33.02760
2334	5.43226	3.2199759	178.1609	177.1057	7.107344	33.02539
2335	5.43432	3.2199758	177.9568	176.9029	7.107083	33.02347
2336	5.43597	3.2199758	177.7467	176.6942	7.106872	33.02195
2337	5.43682	3.2199133	177.5460	176.4947	7.106795	33.02051
2338	5.43747	3.2199445	177.3516	176.3015	7.106693	33.02032
2339	5.43812	3.2199132	177.1229	176.0743	7.106623	33.01944
2340	5.43862	3.2198508	176.8675	175.8205	7.106587	33.01836
2341	5.43902	3.2198507	176.6150	175.5696	7.106532	33.01809
2342	5.43957	3.2198506	176.3927	175.3487	7.106458	33.01766
2343	5.44032	3.2198194	176.1921	175.1494	7.106376	33.01667
2344	5.44087	3.2197694	175.9939	174.9525	7.106329	33.01566
2345	5.44137	3.2196945	175.7872	174.7471	7.106302	33.01442
2346	5.44193	3.2197568	175.5834	174.5445	7.106195	33.01469
2347	5.44228	3.2197256	175.3796	174.3421	7.106163	33.01409
2348	5.44248	3.2196943	175.1664	174.1302	7.106150	33.01364
2349	5.44288	3.2196631	174.9594	173.9245	7.106112	33.01300
2350	5.44318	3.2196318	174.7462	173.7127	7.106086	33.01245
2351	5.44348	3.2196006	174.5336	173.5014	7.106060	33.01191
2352	5.44383	3.2195756	174.3293	173.2984	7.106025	33.01138
2353	5.44418	3.2195443	174.1317	173.1021	7.105993	33.01078
2354	5.44453	3.2195131	173.9246	172.8963	7.105961	33.01018
2355	5.44488	3.2195130	173.7241	172.6971	7.105913	33.00994
2356	5.44528	3.2194818	173.5140	172.4883	7.105874	33.00929
2357	5.44563	3.2194506	173.3041	172.2797	7.105842	33.00870
2358	5.44623	3.2194505	173.1065	172.0833	7.105763	33.00821
2359	5.44663	3.2193881	172.8993	171.8774	7.105741	33.00721
2360	5.44698	3.2193568	172.6896	171.6691	7.105709	33.00661
2361	5.44738	3.2192944	172.4762	171.4570	7.105687	33.00561
2362	5.44798	3.2192632	172.2602	171.2424	7.105624	33.00478
2363	5.44888	3.2192631	172.0409	171.0245	7.105507	33.00400
2364	5.44969	3.2191820	171.8344	170.8193	7.105445	33.00239
2365	5.45054	3.2191694	171.6303	170.6165	7.105341	33.00152
2366	5.45129	3.2191444	171.4266	170.4141	7.105255	33.00060
2367	5.45234	3.2191132	171.2135	170.2024	7.105136	32.99931
2368	5.45334	3.2190196	171.0068	169.9969	7.105056	32.99737
2369	5.45459	3.2189883	170.7905	169.7820	7.104911	32.99589
2370	5.45615	3.2189571	170.5926	169.5853	7.104729	32.99411
2371	5.45760	3.2188947	170.3952	169.3892	7.104577	32.99207
2372	5.45925	3.2188322	170.1788	169.1742	7.104399	32.98985
2373	5.46095	3.2188321	169.9812	168.9778	7.104182	32.98828
2374	5.46246	3.2188009	169.7711	168.7690	7.104006	32.98655
2375	5.46361	3.2187447	169.5551	168.5544	7.103887	32.98489
2376	5.46446	3.2187446	169.3480	168.3486	7.103776	32.98416
2377	5.46591	3.2186822	169.1319	168.1338	7.103623	32.98213
2378	5.46747	3.2186510	168.9252	167.9285	7.103441	32.98035
2379	5.46877	3.2186197	168.7242	167.7288	7.103290	32.97882
2380	5.46992	3.2185573	168.5111	167.5170	7.103175	32.97709
2381	5.47092	3.2185260	168.3012	167.3084	7.103062	32.97585
2382	5.47197	3.2184325	168.0913	167.0998	7.102975	32.97386
2383	5.47313	3.2184012	167.8842	166.8941	7.102843	32.97248
2384	5.47428	3.2184074	167.6742	166.6854	7.102691	32.97152
2385	5.47513	3.2183699	167.4642	166.4767	7.102600	32.97037
2386	5.47593	3.2183387	167.2606	166.2743	7.102512	32.96933
2387	5.47683	3.2182201	167.0565	166.0716	7.102458	32.96720
2388	5.47764	3.2182824	166.8437	165.8600	7.102320	32.96722
2389	5.47859	3.2182823	166.6336	165.6513	7.102196	32.96639
2390	5.47924	3.2182823	166.4175	165.4366	7.102110	32.96586
2391	5.47969	3.2182822	166.2197	165.2400	7.102049	32.96552
2392	5.48024	3.2182509	166.0189	165.0405	7.101992	32.96472
2393	5.48064	3.2182197	165.8090	164.8319	7.101954	32.96408
2394	5.48104	3.2181885	165.5868	164.6111	7.101915	32.96344
2395	5.48149	3.2181572	165.3645	164.3902	7.101871	32.96275
2396	5.48214	3.2181260	165.1577	164.1847	7.101801	32.96186
2397	5.48315	3.2180636	164.9599	163.9882	7.101705	32.96027
2398	5.48430	3.2179700	164.7497	163.7793	7.101606	32.95818
2399	5.48595	3.2179699	164.5549	163.5857	7.101395	32.95666
2400	5.48761	3.2178514	164.3480	163.3801	7.101247	32.95379
2401	5.48911	3.2177890	164.1352	163.1686	7.101087	32.95172
2402	5.49086	3.2176642	163.9100	162.9449	7.100929	32.94869
2403	5.49287	3.2175956	163.7031	162.7393	7.100711	32.94605
2404	5.49487	3.2174833	163.4961	162.5335	7.100516	32.94292
2405	5.49743	3.2173585	163.2952	162.3339	7.100258	32.93910
2406	5.50039	3.2172649	163.0882	162.1282	7.099934	32.93524
2407	5.50335	3.2171090	162.8783	161.9196	7.099643	32.93068
2408	5.50661	3.2169905	162.6712	161.7138	7.099295	32.92625
2409	5.51047	3.2168657	162.4615	161.5054	7.098874	32.92116
2410	5.51488	3.2167721	162.2605	161.3057	7.098369	32.91587
2411	5.51864	3.2167097	162.0536	161.1001	7.097929	32.91159
2412	5.52180	3.2167096	161.8558	160.9036	7.097530	32.90859
2413	5.52411	3.2166534	161.6338	160.6830	7.097267	32.90581
2414	5.52606	3.2166533	161.4116	160.4622	7.097019	32.90401
2415	5.52792	3.2166221	161.1984	160.2502	7.096799	32.90194
2416	5.52963	3.2165908	160.9945	160.0477	7.096598	32.90002
2417	5.53113	3.2165907	160.7967	159.8511	7.096406	32.89865
2418	5.53269	3.2166530	160.5930	159.6487	7.096175	32.89793
2419	5.53404	3.2166218	160.3799	159.4369	7.096018	32.89636
2420	5.53550	3.2167089	160.1606	159.2190	7.095785	32.89603
2421	5.53700	3.2167836	159.9630	159.0226	7.095554	32.89551
2422	5.53881	3.2167711	159.7653	158.8262	7.095331	32.89370
2423	5.54021	3.2168645	159.5703	158.6324	7.095102	32.89348
2424	5.54172	3.2169268	159.3726	158.4359	7.094877	32.89281
2425	5.54322	3.2169267	159.1565	158.2212	7.094685	32.89144
2426	5.54433	3.2169578	158.9373	158.0033	7.094526	32.89083
2427	5.54513	3.2169889	158.7243	157.7917	7.094404	32.89050
2428	5.54583	3.2170200	158.5112	157.5799	7.094296	32.89027
2429	5.54648	3.2170199	158.3013	157.3713	7.094210	32.88974
2430	5.54709	3.2170510	158.0823	157.1536	7.094113	32.88961
2431	5.54779	3.2170509	157.8722	156.9449	7.094021	32.88902
2432	5.54829	3.2170508	157.6593	156.7333	7.093953	32.88864
2433	5.54874	3.2170757	157.4493	156.5247	7.093879	32.88858
2434	5.54929	3.2170756	157.2483	156.3249	7.093806	32.88814
2435	5.54980	3.2170756	157.0475	156.1254	7.093739	32.88775
2436	5.55010	3.2170194	156.8560	155.9350	7.093727	32.88691
2437	5.55040	3.2169570	156.6397	155.7201	7.093717	32.88602
2438	5.55015	3.2168946	156.4238	155.5055	7.093776	32.88566
2439	5.55000	3.2168447	156.2074	155.2905	7.093816	32.88535
2440	5.54960	3.2167387	155.9976	155.0820	7.093917	32.88465
2441	5.54899	3.2166513	155.7906	154.8763	7.094034	32.88435
2442	5.54824	3.2165578	155.5655	154.6526	7.094172	32.88414
2443	5.54779	3.2164954	155.3404	154.4289	7.094256	32.88398
2444	5.54724	3.2163707	155.1334	154.2231	7.094385	32.88321
2445	5.54663	3.2163083	154.9203	154.0114	7.094488	32.88320
2446	5.54628	3.2162210	154.7284	153.8207	7.094574	32.88265
2447	5.54593	3.2161586	154.5215	153.6151	7.094646	32.88239
2448	5.54618	3.2160962	154.3208	153.4157	7.094643	32.88153
2449	5.54628	3.2160650	154.1167	153.2128	7.094642	32.88118
2450	5.54679	3.2160338	153.9099	153.0073	7.094591	32.88044
2451	5.54749	3.2159714	153.7028	152.8015	7.094532	32.87915
2452	5.54829	3.2159090	153.5051	152.6050	7.094460	32.87775
2453	5.54940	3.2158777	153.2924	152.3937	7.094334	32.87643
2454	5.55040	3.2158216	153.0913	152.1938	7.094234	32.87491
2455	5.55125	3.2157904	152.8781	151.9820	7.094139	32.87383
2456	5.55190	3.2157280	152.6653	151.7704	7.094086	32.87259
2457	5.55271	3.2157092	152.4521	151.5586	7.093991	32.87170
2458	5.55341	3.2156967	152.2544	151.3622	7.093906	32.87097
2459	5.55386	3.2156031	152.0444	151.1534	7.093894	32.86957
2460	5.55431	3.2155407	151.8435	150.9538	7.093866	32.86852
2461	5.55456	3.2155407	151.6367	150.7483	7.093830	32.86838
2462	5.55462	3.2155094	151.4266	150.5395	7.093835	32.86808
2463	5.55482	3.2154221	151.2104	150.3246	7.093851	32.86700
2464	5.55502	3.2154220	151.0065	150.1220	7.093822	32.86690
2465	5.55492	3.2153908	150.8058	149.9226	7.093846	32.86675
2466	5.55502	3.2153908	150.6019	149.7199	7.093829	32.86675
2467	5.55507	3.2153907	150.3949	149.5142	7.093818	32.86680
2468	5.55502	3.2153906	150.1938	149.3144	7.093819	32.86695
2469	5.55512	3.2153906	149.9778	149.0997	7.093802	32.86696
2470	5.55522	3.2153905	149.7773	148.9004	7.093785	32.86696
2471	5.55522	3.2153593	149.5672	148.6916	7.093796	32.86671
2472	5.55522	3.2152969	149.3570	148.4828	7.093825	32.86611
2473	5.55522	3.2152221	149.1439	148.2710	7.093859	32.86536
2474	5.55522	3.2150787	148.9312	148.0596	7.093930	32.86384
2475	5.55502	3.2150474	148.7179	147.8476	7.093966	32.86379
2476	5.55502	3.2149601	148.5079	147.6389	7.094008	32.86291
2477	5.55492	3.2149289	148.3011	147.4334	7.094032	32.86275
2478	5.55497	3.2148665	148.0973	147.2309	7.094054	32.86210
2479	5.55482	3.2148353	147.8904	147.0252	7.094084	32.86199
2480	5.55482	3.2148041	147.6836	146.8197	7.094096	32.86174
2481	5.55482	3.2147729	147.4794	146.6168	7.094108	32.86149
2482	5.55477	3.2147105	147.2816	146.4202	7.094142	32.86093
2483	5.55482	3.2146481	147.0778	146.2177	7.094164	32.86028
2484	5.55497	3.2146231	146.8800	146.0211	7.094154	32.85994
2485	5.55497	3.2145608	146.6700	145.8125	7.094182	32.85934
2486	5.55507	3.2144672	146.4572	145.6009	7.094214	32.85829
2487	5.55517	3.2144049	146.2470	145.3921	7.094230	32.85759
2488	5.55522	3.2143425	146.0248	145.1713	7.094251	32.85694
2489	5.55557	3.2142801	145.8115	144.9593	7.094235	32.85600
2490	5.55567	3.2142177	145.5985	144.7475	7.094251	32.85530
2491	5.55582	3.2141616	145.3765	144.5269	7.094256	32.85463
2492	5.55597	3.2140992	145.1573	144.3091	7.094266	32.85388
2493	5.55602	3.2140680	144.9564	144.1094	7.094271	32.85358
2494	5.55622	3.2140368	144.7556	143.9099	7.094258	32.85313
2495	5.55637	3.2139432	144.5547	143.7102	7.094284	32.85202
2496	5.55647	3.2138248	144.3538	143.5106	7.094329	32.85068
2497	5.55677	3.2137001	144.1561	143.3141	7.094353	32.84907
2498	5.55748	3.2134259	143.9460	143.1053	7.094405	32.84538
2499	5.55858	3.2133635	143.7391	142.8997	7.094296	32.84370
2500	5.55979	3.2132388	143.5384	142.7002	7.094207	32.84121
2501	5.56089	3.2131453	143.3373	142.5004	7.094114	32.83917
2502	5.56194	3.2129957	143.1303	142.2947	7.094056	32.83655
2503	5.56315	3.2129333	142.9205	142.0861	7.093934	32.83478
2504	5.56450	3.2128087	142.7104	141.8774	7.093826	32.83214
2505	5.56576	3.2127463	142.4973	141.6655	7.093698	32.83032
2506	5.56691	3.2126964	142.2782	141.4478	7.093575	32.82874
2507	5.56807	3.2126278	142.0773	141.2482	7.093463	32.82693
2508	5.56943	3.2125654	141.8731	141.0453	7.093322	32.82500
2509	5.57073	3.2125342	141.6602	140.8336	7.093171	32.82348
2510	5.57209	3.2124095	141.4625	140.6372	7.093063	32.82085
2511	5.57399	3.2123160	141.2555	140.4315	7.092870	32.81803
2512	5.57575	3.2122287	141.0518	140.2290	7.092692	32.81543
2513	5.57816	3.2121040	140.8601	140.0385	7.092453	32.81176
2514	5.58042	3.2121039	140.6529	139.8326	7.092167	32.80966
2515	5.58203	3.2120416	140.4522	139.6331	7.091995	32.80749
2516	5.58359	3.2119792	140.2481	139.4302	7.091829	32.80537
2517	5.58499	3.2119480	140.0445	139.2279	7.091666	32.80374
2518	5.58635	3.2119479	139.8251	139.0099	7.091492	32.80253
2519	5.58746	3.2119167	139.6243	138.8104	7.091366	32.80120
2520	5.58846	3.2119166	139.4021	138.5895	7.091236	32.80033
2521	5.58926	3.2118916	139.1892	138.3778	7.091144	32.79937
2522	5.59002	3.2118915	138.9885	138.1784	7.091046	32.79873
2523	5.59062	3.2118603	138.7813	137.9725	7.090982	32.79789
2524	5.59107	3.2118602	138.5715	137.7640	7.090921	32.79756
2525	5.59168	3.2118290	138.3644	137.5582	7.090858	32.79672
2526	5.59193	3.2117978	138.1668	137.3618	7.090838	32.79622
2527	5.59243	3.2117977	137.9720	137.1681	7.090771	32.79582
2528	5.59308	3.2117665	137.7648	136.9622	7.090702	32.79494
2529	5.59368	3.2117353	137.5699	136.7686	7.090639	32.79409
2530	5.59449	3.2117041	137.3539	136.5539	7.090550	32.79306
2531	5.59519	3.2116106	137.1500	136.3512	7.090507	32.79142
2532	5.59635	3.2116417	136.9431	136.1456	7.090342	32.79075
2533	5.59695	3.2115793	136.7269	135.9307	7.090295	32.78956
2534	5.59801	3.2115481	136.5138	135.7189	7.090175	32.78829
2535	5.59901	3.2115293	136.3037	135.5102	7.090055	32.78720
2536	5.59991	3.2114919	136.0910	135.2987	7.089957	32.78600
2537	5.60057	3.2114606	135.8812	135.0903	7.089887	32.78511
2538	5.60127	3.2113671	135.6830	134.8932	7.089844	32.78347
2539	5.60208	3.2112736	135.4761	134.6876	7.089789	32.78173
2540	5.60298	3.2112424	135.2660	134.4789	7.089688	32.78060
2541	5.60378	3.2112735	135.0623	134.2764	7.089566	32.78027
2542	5.60429	3.2112111	134.8674	134.0826	7.089532	32.77917
2543	5.60479	3.2111550	134.6391	133.8557	7.089494	32.77816
2544	5.60544	3.2110304	134.4171	133.6351	7.089473	32.77622
2545	5.60635	3.2109992	134.2192	133.4385	7.089372	32.77509
2546	5.60715	3.2109679	134.0151	133.2357	7.089284	32.77405
2547	5.60796	3.2108744	133.7993	133.0212	7.089228	32.77232
2548	5.60871	3.2108121	133.5861	132.8093	7.089162	32.77099
2549	5.60941	3.2107809	133.3699	132.5944	7.089086	32.77006
2550	5.61057	3.2106874	133.1601	132.3858	7.088986	32.76798
2551	5.61258	3.2105378	132.9621	132.1891	7.088810	32.76443
2552	5.61565	3.2105066	132.7492	131.9775	7.088440	32.76120
2553	5.61906	3.2103881	132.5391	131.7687	7.088072	32.75664
2554	5.62314	3.2103257	132.3231	131.5540	7.087593	32.75208
2555	5.62847	3.2101699	132.1191	131.3513	7.087006	32.74524
2556	5.63450	3.2100203	131.9183	131.1517	7.086329	32.73778
2557	5.64003	3.2097088	131.7175	130.9521	7.085800	32.72899
2558	5.64632	3.2093724	131.5255	130.7613	7.085189	32.71917
2559	5.65226	3.2089738	131.3216	130.5586	7.084655	32.70901
2560	5.65834	3.2085191	131.1114	130.3497	7.084131	32.69807
2561	5.66478	3.2081204	130.9016	130.1412	7.083534	32.68743
2562	5.67208	3.2073856	130.6856	129.9265	7.083006	32.67216
2563	5.68175	3.2068749	130.4785	129.7207	7.082066	32.65714
2564	5.69282	3.2064639	130.2718	129.5152	7.080898	32.64188
2565	5.70436	3.2062832	130.0708	129.3155	7.079553	32.62878
2566	5.71388	3.2060402	129.8609	129.1069	7.078491	32.61694
2567	5.72189	3.2059778	129.6447	128.8920	7.077523	32.60859
2568	5.72844	3.2058532	129.4378	128.6864	7.076769	32.60096
2569	5.73419	3.2057597	129.2277	128.4775	7.076098	32.59446
2570	5.73862	3.2057285	129.0207	128.2718	7.075558	32.58993
2571	5.74195	3.2056724	128.8289	128.0812	7.075170	32.58617
2572	5.74472	3.2056100	128.6251	127.8787	7.074853	32.58290
2573	5.74684	3.2055788	128.4151	127.6699	7.074601	32.58060
2574	5.74856	3.2055165	128.2020	127.4581	7.074416	32.57835
2575	5.75007	3.2054168	127.9829	127.2404	7.074275	32.57588
2576	5.75118	3.2053919	127.7789	127.0376	7.074145	32.57462
2577	5.75214	3.2052735	127.5844	126.8443	7.074084	32.57246
2578	5.75365	3.2051801	127.3834	126.6445	7.073940	32.57005
2579	5.75652	3.2051489	127.1643	126.4267	7.073594	32.56703
2580	5.76369	3.2051487	126.9509	126.2147	7.072699	32.56023
2581	5.77186	3.2050863	126.7409	126.0059	7.071711	32.55175
2582	5.78452	3.2051173	126.5278	125.7941	7.070117	32.53999
2583	5.80143	3.2052104	126.3335	125.6010	7.067964	32.52485
2584	5.81734	3.2052102	126.1383	125.4071	7.065986	32.50964
2585	5.83057	3.2052100	125.9375	125.2075	7.064339	32.49701
2586	5.84240	3.2052409	125.7336	125.0048	7.062851	32.48609
2587	5.85155	3.2052843	125.5267	124.7991	7.061689	32.47789
2588	5.85812	3.2053340	125.3075	124.5813	7.060844	32.47224
2589	5.86383	3.2053587	125.1007	124.3757	7.060118	32.46714
2590	5.86889	3.2053586	124.9088	124.1850	7.059487	32.46238
2591	5.87318	3.2053336	124.7049	123.9823	7.058962	32.45807
2592	5.87667	3.2053335	124.5009	123.7796	7.058525	32.45482
2593	5.87951	3.2052712	124.2880	123.5680	7.058202	32.45151
2594	5.88173	3.2052711	124.0690	123.3503	7.057921	32.44948
2595	5.88335	3.2052399	123.8313	123.1141	7.057731	32.44769
2596	5.88462	3.2052087	123.6001	122.8843	7.057585	32.44624
2597	5.88578	3.2052086	123.3872	122.6727	7.057436	32.44523
2598	5.88679	3.2051152	123.1893	122.4760	7.057355	32.44330
2599	5.88826	3.2050902	122.9731	122.2611	7.057181	32.44172
2600	5.89069	3.2051461	122.7632	122.0525	7.056847	32.44012
2601	5.89266	3.2051772	122.5530	121.8436	7.056581	32.43868
2602	5.89438	3.2052393	122.3551	121.6469	7.056332	32.43783
2603	5.89681	3.2054197	122.1572	121.4501	7.055933	32.43762
2604	5.90005	3.2055130	121.9596	121.2538	7.055479	32.43565
2605	5.90324	3.2055752	121.7528	121.0482	7.055047	32.43339
2606	5.90678	3.2056373	121.5365	120.8332	7.054571	32.43080
2607	5.91073	3.2056061	121.3203	120.6184	7.054094	32.42677
2608	5.91538	3.2055748	121.1013	120.4006	7.053528	32.42207
2609	5.91974	3.2055747	120.9063	120.2069	7.052985	32.41799
2610	5.92343	3.2056057	120.7055	120.0073	7.052507	32.41490
2611	5.92804	3.2057052	120.5016	119.8046	7.051880	32.41170
2612	5.93361	3.2057549	120.2916	119.5959	7.051160	32.40703
2613	5.93852	3.2057859	120.0725	119.3781	7.050531	32.40278
2614	5.94242	3.2060037	119.8595	119.1664	7.049931	32.40159
2615	5.94673	3.2061218	119.6555	118.9637	7.049333	32.39889
2616	5.95073	3.2061217	119.4637	118.7731	7.048833	32.39515
2617	5.95387	3.2062461	119.2659	118.5764	7.048376	32.39364
2618	5.95707	3.2063705	119.0558	118.3676	7.047912	32.39208
2619	5.95985	3.2063393	118.8459	118.1590	7.047579	32.38916
2620	5.96168	3.2064264	118.6267	117.9411	7.047303	32.38850
2621	5.96335	3.2064886	118.4289	117.7445	7.047060	32.38769
2622	5.96512	3.2065196	118.2217	117.5386	7.046820	32.38644
2623	5.96675	3.2065444	118.0239	117.3419	7.046602	32.38527
2624	5.96771	3.2065817	117.8201	117.1394	7.046459	32.38486
2625	5.96887	3.2065816	117.5981	116.9187	7.046310	32.38386
2626	5.96969	3.2066127	117.3786	116.7006	7.046189	32.38353
2627	5.97080	3.2066749	117.1655	116.4888	7.046014	32.38327
2628	5.97207	3.2066748	116.9619	116.2864	7.045853	32.38215
2629	5.97333	3.2067058	116.7641	116.0898	7.045676	32.38138
2630	5.97465	3.2067369	116.5659	115.8928	7.045493	32.38057
2631	5.97622	3.2067928	116.3564	115.6845	7.045265	32.37979
2632	5.97891	3.2068861	116.1431	115.4725	7.044880	32.37837
2633	5.98342	3.2069483	115.9301	115.2608	7.044285	32.37486
2634	5.98865	3.2070727	115.7201	115.0522	7.043571	32.37136
2635	5.99346	3.2071286	115.5100	114.8433	7.042942	32.36749
2636	5.99838	3.2072218	115.3152	114.6496	7.042282	32.36393
2637	6.00391	3.2072528	115.1112	114.4469	7.041578	32.35909
2638	6.00939	3.2073150	114.8984	114.2354	7.040864	32.35466
2639	6.01497	3.2073460	114.6759	114.0142	7.040154	32.34979
2640	6.01979	3.2074081	114.4721	113.8117	7.039522	32.34598
2641	6.02472	3.2074392	114.2743	113.6150	7.038894	32.34173
2642	6.02928	3.2074702	114.0794	113.4213	7.038310	32.33781
2643	6.03294	3.2074701	113.8845	113.2276	7.037854	32.33442
2644	6.03659	3.2074949	113.6806	113.0249	7.037386	32.33131
2645	6.03995	3.2074948	113.4675	112.8131	7.036967	32.32822
2646	6.04309	3.2075258	113.2545	112.6014	7.036558	32.32567
2647	6.04655	3.2075568	113.0566	112.4047	7.036111	32.32282
2648	6.05061	3.2075256	112.8498	112.1992	7.035621	32.31870
2649	6.05604	3.2076687	112.6307	111.9814	7.034873	32.31522
2650	6.06280	3.2076810	112.4143	111.7663	7.034028	32.30903
2651	6.06879	3.2078303	112.2105	111.5638	7.033207	32.30509
2652	6.07601	3.2078924	112.0006	111.3551	7.032281	32.29901
2653	6.08323	3.2079545	111.7905	111.1463	7.031354	32.29294
2654	6.08938	3.2079855	111.5929	110.9498	7.030576	32.28753
2655	6.09542	3.2080166	111.4010	110.7591	7.029810	32.28222
2656	6.10122	3.2080476	111.1939	110.5532	7.029075	32.27715
2657	6.10768	3.2080474	110.9929	110.3534	7.028274	32.27111
2658	6.11393	3.2080162	110.7833	110.1451	7.027515	32.26492
2659	6.11983	3.2080472	110.5669	109.9300	7.026767	32.25976
2660	6.12579	3.2080159	110.3571	109.7215	7.026045	32.25386
2661	6.13220	3.2080158	110.1500	109.5157	7.025251	32.24787
2662	6.13749	3.2079908	109.9399	109.3068	7.024607	32.24267
2663	6.14212	3.2079844	109.7299	109.0981	7.024035	32.23830
2664	6.14696	3.2079843	109.5198	108.8892	7.023435	32.23382
2665	6.15159	3.2079219	109.3097	108.6805	7.022892	32.22883
2666	6.15637	3.2078907	109.1089	108.4808	7.022314	32.22404
2667	6.16157	3.2079528	108.9081	108.2812	7.021639	32.21990
2668	6.16753	3.2079839	108.7135	108.0878	7.020885	32.21469
2669	6.17384	3.2081394	108.5276	107.9030	7.020025	32.21053
2670	6.18031	3.2082264	108.3205	107.6971	7.019180	32.20546
2671	6.18586	3.2083197	108.1200	107.4978	7.018445	32.20134
2672	6.19121	3.2085624	107.9250	107.3041	7.017658	32.19906
2673	6.19661	3.2088425	107.7210	107.1012	7.016847	32.19716
2674	6.20263	3.2089918	107.5292	106.9106	7.016027	32.19322
2675	6.20823	3.2089606	107.3406	106.7231	7.015349	32.18765
2676	6.21145	3.2091162	107.1365	106.5203	7.014871	32.18644
2677	6.21461	3.2094835	106.9359	106.3209	7.014291	32.18763
2678	6.21945	3.2098197	106.7349	106.1210	7.013520	32.18687
2679	6.22516	3.2102181	106.5339	105.9213	7.012612	32.18599
2680	6.23235	3.2104609	106.3390	105.7276	7.011600	32.18198
2681	6.23914	3.2107410	106.1443	105.5340	7.010620	32.17877
2682	6.24587	3.2110772	105.9465	105.3374	7.009618	32.17623
2683	6.25358	3.2113511	105.7580	105.1500	7.008529	32.17207
2684	6.26057	3.2114133	105.5722	104.9653	7.007635	32.16624
2685	6.26562	3.2114755	105.3772	104.7716	7.006979	32.16225
2686	6.26955	3.2116872	105.1887	104.5842	7.006385	32.16098
2687	6.27338	3.2118739	105.0118	104.4084	7.005817	32.15952
2688	6.27716	3.2118738	104.8141	104.2118	7.005349	32.15604
2689	6.27971	3.2120295	104.6225	104.0214	7.004953	32.15545
2690	6.28206	3.2121789	104.4367	103.8367	7.004585	32.15497
2691	6.28467	3.2122723	104.2419	103.6430	7.004214	32.15364
2692	6.28707	3.2125151	104.0594	103.4616	7.003792	32.15416
2693	6.29023	3.2129137	103.8613	103.2648	7.003198	32.15568
2694	6.29447	3.2130071	103.6729	103.0774	7.002626	32.15280
2695	6.29784	3.2132188	103.4809	102.8866	7.002102	32.15206
2696	6.30152	3.2135552	103.2921	102.6989	7.001476	32.15241
2697	6.30597	3.2138043	103.1065	102.5144	7.000801	32.15106
2698	6.31031	3.2139849	102.9177	102.3268	7.000174	32.14905
2699	6.31424	3.2141717	102.7355	102.1456	6.999593	32.14750
2700	6.31823	3.2142900	102.5463	101.9576	6.999041	32.14514
2701	6.32217	3.2143833	102.3426	101.7551	6.998507	32.14255
2702	6.32523	3.2144767	102.1478	101.5615	6.998080	32.14079
2703	6.32804	3.2146262	101.9588	101.3736	6.997656	32.13988
2704	6.33121	3.2147507	101.7856	101.2014	6.997201	32.13835
2705	6.33449	3.2148441	101.5968	101.0138	6.996749	32.13639
2706	6.33761	3.2148128	101.4143	100.8324	6.996379	32.13319
2707	6.33960	3.2148439	101.2255	100.6447	6.996115	32.13175
2708	6.34108	3.2148750	101.0457	100.4660	6.995914	32.13078
2709	6.34211	3.2148749	100.8602	100.2816	6.995784	32.12990
2710	6.34303	3.2149060	100.6868	100.1092	6.995652	32.12946
2711	6.34390	3.2149371	100.5191	99.9425	6.995526	32.12907
2712	6.34471	3.2149371	100.3457	99.7702	6.995422	32.12838
2713	6.34543	3.2149058	100.1542	99.5798	6.995346	32.12745
2714	6.34615	3.2149369	99.9744	99.4011	6.995239	32.12720
2715	6.34686	3.2149369	99.7946	99.2224	6.995148	32.12661
2716	6.34763	3.2149057	99.6245	99.0532	6.995066	32.12562
2717	6.34824	3.2148744	99.4538	98.8836	6.995003	32.12478
2718	6.34911	3.2148432	99.2744	98.7053	6.994908	32.12370
2719	6.35019	3.2148120	99.0887	98.5207	6.994788	32.12243
2720	6.35095	3.2148119	98.9091	98.3421	6.994691	32.12179
2721	6.35203	3.2148119	98.7205	98.1547	6.994555	32.12087
2722	6.35315	3.2147806	98.5439	97.9791	6.994429	32.11955
2723	6.35418	3.2147494	98.3610	97.7973	6.994316	32.11833
2724	6.35551	3.2147493	98.1846	97.6220	6.994149	32.11716
2725	6.35684	3.2147181	98.0021	97.4406	6.993998	32.11564
2726	6.35796	3.2146869	97.8103	97.2499	6.993872	32.11433
2727	6.35904	3.2146557	97.6306	97.0713	6.993753	32.11306
2728	6.35996	3.2146556	97.4358	96.8777	6.993636	32.11228
2729	6.36103	3.2146555	97.2621	96.7050	6.993500	32.11135
2730	6.36221	3.2146243	97.0888	96.5327	6.993368	32.10998
2731	6.36390	3.2145682	96.9122	96.3572	6.993186	32.10785
2732	6.36625	3.2145369	96.7264	96.1725	6.992910	32.10538
2733	6.36942	3.2144745	96.5289	95.9761	6.992549	32.10180
2734	6.37336	3.2144433	96.3461	95.7945	6.992079	32.09783
2735	6.37751	3.2144120	96.1605	95.6100	6.991583	32.09367
2736	6.38206	3.2143496	95.9869	95.4374	6.991054	32.08877
2737	6.38585	3.2143557	95.8103	95.2619	6.990583	32.08536
2738	6.38908	3.2142871	95.6246	95.0773	6.990219	32.08166
2739	6.39210	3.2142870	95.4391	94.8929	6.989846	32.07890
2740	6.39491	3.2142558	95.2410	94.6959	6.989513	32.07600
2741	6.39691	3.2142245	95.0465	94.5026	6.989280	32.07387
2742	6.39880	3.2142245	94.8637	94.3209	6.989045	32.07218
2743	6.40049	3.2142244	94.6839	94.1422	6.988834	32.07067
2744	6.40198	3.2141682	94.4984	93.9578	6.988677	32.06875
2745	6.40295	3.2141682	94.3066	93.7670	6.988554	32.06792
2746	6.40408	3.2141993	94.1269	93.5885	6.988397	32.06729
2747	6.40510	3.2141992	93.9475	93.4101	6.988268	32.06641
2748	6.40608	3.2141680	93.7616	93.2254	6.988160	32.06524
2749	6.40741	3.2141679	93.5852	93.0499	6.987994	32.06407
2750	6.40838	3.2141367	93.3994	92.8653	6.987886	32.06290
2751	6.40915	3.2141678	93.2138	92.6807	6.987773	32.06261
2752	6.41007	3.2141677	93.0190	92.4872	6.987656	32.06184
2753	6.41110	3.2141676	92.8211	92.2905	6.987526	32.06097
2754	6.41212	3.2141613	92.6293	92.0997	6.987400	32.06003
2755	6.41366	3.2141363	92.4497	91.9212	6.987221	32.05839
2756	6.41555	3.2141363	92.2699	91.7424	6.986985	32.05669
2757	6.41765	3.2141050	92.0905	91.5642	6.986741	32.05446
2758	6.41965	3.2141050	91.9107	91.3855	6.986492	32.05267
2759	6.42165	3.2141049	91.7099	91.1858	6.986244	32.05089
2760	6.42339	3.2140425	91.5213	90.9984	6.986058	32.04865
2761	6.42549	3.2140113	91.3450	90.8230	6.985813	32.04642
2762	6.42785	3.2139800	91.1652	90.6443	6.985537	32.04394
2763	6.43062	3.2139176	90.9885	90.4687	6.985227	32.04074
2764	6.43344	3.2138864	90.8058	90.2870	6.984894	32.03784
2765	6.43615	3.2138240	90.6175	90.0999	6.984589	32.03469
2766	6.43912	3.2137678	90.4255	89.9090	6.984250	32.03137
2767	6.44159	3.2136743	90.2368	89.7214	6.983992	32.02812
2768	6.44425	3.2136431	90.0665	89.5521	6.983679	32.02535
2769	6.44702	3.2135807	89.8898	89.3765	6.983368	32.02215
2770	6.44989	3.2134809	89.7102	89.1980	6.983064	32.01844
2771	6.45251	3.2134559	89.5275	89.0164	6.982753	32.01580
2772	6.45492	3.2133997	89.3324	88.8224	6.982482	32.01301
2773	6.45743	3.2132750	89.1440	88.6351	6.982234	32.00937
2774	6.46081	3.2132750	88.9674	88.4596	6.981817	32.00628
2775	6.46425	3.2132126	88.7846	88.2779	6.981425	32.00246
2776	6.46758	3.2131813	88.6143	88.1086	6.981029	31.99907
2777	6.47102	3.2131189	88.4318	87.9271	6.980637	31.99525
2778	6.47440	3.2131188	88.2461	87.7425	6.980220	31.99216
2779	6.47712	3.2130876	88.0600	87.5576	6.979899	31.98936
2780	6.47948	3.2130315	87.8777	87.3763	6.979635	31.98662
2781	6.48174	3.2130002	87.7042	87.2038	6.979372	31.98424
2782	6.48420	3.2130001	87.5304	87.0311	6.979067	31.98201
2783	6.48621	3.2130001	87.3571	86.8589	6.978819	31.98022
2784	6.48805	3.2130000	87.1806	86.6833	6.978590	31.97858
2785	6.49005	3.2129937	86.9915	86.4954	6.978345	31.97672
2786	6.49221	3.2130310	86.7999	86.3049	6.978059	31.97521
2787	6.49390	3.2130309	86.6204	86.1265	6.977848	31.97371
2788	6.49565	3.2129997	86.4470	85.9541	6.977647	31.97181
2789	6.49770	3.2130868	86.2673	85.7754	6.977349	31.97093
2790	6.49996	3.2131179	86.0876	85.5968	6.977054	31.96925
2791	6.50294	3.2131178	85.9110	85.4213	6.976687	31.96654
2792	6.50581	3.2131177	85.7283	85.2396	6.976332	31.96394
2793	6.50936	3.2131176	85.5520	85.0644	6.975896	31.96071
2794	6.51434	3.2131175	85.3814	84.8948	6.975285	31.95613
2795	6.51880	3.2130551	85.2078	84.7222	6.974768	31.95135
2796	6.52327	3.2129990	85.0436	84.5590	6.974247	31.94663
2797	6.52789	3.2129366	84.8699	84.3863	6.973711	31.94171
2798	6.53190	3.2128430	84.6876	84.2051	6.973265	31.93702
2799	6.53519	3.2127495	84.5046	84.0232	6.972907	31.93300
2800	6.53812	3.2127183	84.3282	83.8478	6.972562	31.93001
2801	6.54094	3.2126683	84.1485	83.6692	6.972238	31.92690
2802	6.54351	3.2125997	83.9842	83.5058	6.971956	31.92383
2803	6.54660	3.2125685	83.8045	83.3271	6.971591	31.92069
2804	6.55009	3.2125995	83.6219	83.1457	6.971146	31.91786
2805	6.55328	3.2125995	83.4392	82.9641	6.970754	31.91497
2806	6.55682	3.2125994	83.2597	82.7856	6.970317	31.91174
2807	6.56073	3.2126304	83.0801	82.6071	6.969822	31.90852
2808	6.56459	3.2126552	82.9005	82.4285	6.969336	31.90528
2809	6.56890	3.2126551	82.7363	82.2653	6.968806	31.90133
2810	6.57307	3.2126301	82.5686	82.0986	6.968307	31.89725
2811	6.57688	3.2126550	82.3892	81.9202	6.967827	31.89406
2812	6.58089	3.2126860	82.2093	81.7414	6.967319	31.89075
2813	6.58474	3.2126859	82.0360	81.5691	6.966846	31.88723
2814	6.58835	3.2126858	81.8776	81.4116	6.966404	31.88395
2815	6.59184	3.2126857	81.7011	81.2362	6.965974	31.88077
2816	6.59498	3.2126981	81.5276	81.0637	6.965582	31.87807
2817	6.59797	3.2126856	81.3509	80.8881	6.965221	31.87523
2818	6.60141	3.2127166	81.1715	80.7097	6.964782	31.87245
2819	6.60481	3.2127165	80.9980	80.5372	6.964365	31.86937
2820	6.60831	3.2127164	80.8305	80.3707	6.963935	31.86618
2821	6.61145	3.2127164	80.6659	80.2071	6.963549	31.86334
2822	6.61413	3.2127474	80.4987	80.0409	6.963204	31.86127
2823	6.61639	3.2127162	80.3251	79.8683	6.962940	31.85890
2824	6.61809	3.2127784	80.1578	79.7020	6.962699	31.85808
2825	6.61953	3.2128095	79.9842	79.5294	6.962504	31.85716
2826	6.62087	3.2127783	79.8198	79.3660	6.962354	31.85565
2827	6.62180	3.2128405	79.6584	79.2055	6.962206	31.85555
2828	6.62257	3.2128093	79.4849	79.0331	6.962124	31.85457
2829	6.62324	3.2128404	79.3145	78.8637	6.962024	31.85436
2830	6.62380	3.2129027	79.1410	78.6912	6.961920	31.85460
2831	6.62416	3.2129213	78.9706	78.5218	6.961863	31.85455
2832	6.62473	3.2129337	78.8030	78.3551	6.961785	31.85424
2833	6.62535	3.2129336	78.6356	78.1887	6.961706	31.85374
2834	6.62576	3.2129336	78.4653	78.0194	6.961652	31.85344
2835	6.62602	3.2129335	78.2945	77.8496	6.961617	31.85328
2836	6.62643	3.2129646	78.1363	77.6923	6.961548	31.85331
2837	6.62679	3.2129023	77.9600	77.5171	6.961532	31.85237
2838	6.62694	3.2129645	77.7862	77.3443	6.961478	31.85300
2839	6.62720	3.2129333	77.6248	77.1839	6.961459	31.85249
2840	6.62746	3.2129644	77.4604	77.0204	6.961409	31.85267
2841	6.62766	3.2129955	77.2902	76.8512	6.961365	31.85290
2842	6.62803	3.2129954	77.1287	76.6907	6.961317	31.85264
2843	6.62828	3.2129954	76.9550	76.5180	6.961282	31.85248
2844	6.62854	3.2129642	76.7999	76.3638	6.961263	31.85197
2845	6.62875	3.2129330	76.6477	76.2125	6.961250	31.85151
2846	6.62885	3.2129205	76.4680	76.0338	6.961240	31.85136
2847	6.62890	3.2129017	76.3160	75.8827	6.961240	31.85118
2848	6.62931	3.2129328	76.1486	75.7163	6.961171	31.85121
2849	6.62978	3.2129328	75.9900	75.5587	6.961111	31.85086
2850	6.63034	3.2129016	75.8226	75.3922	6.961054	31.85006
2851	6.63091	3.2129015	75.6581	75.2287	6.960982	31.84961
2852	6.63163	3.2128703	75.4879	75.0595	6.960906	31.84868
2853	6.63276	3.2128702	75.3143	74.8869	6.960765	31.84771
2854	6.63415	3.2129325	75.1498	74.7233	6.960561	31.84718
2855	6.63575	3.2130259	74.9764	74.5510	6.960317	31.84680
2856	6.63796	3.2131753	74.8091	74.3846	6.959969	31.84646
2857	6.64095	3.2132998	74.6386	74.2152	6.959540	31.84513
2858	6.64414	3.2135116	74.4830	74.0604	6.959043	31.84455
2859	6.64868	3.2137918	74.3098	73.8883	6.958349	31.84350
2860	6.65501	3.2138166	74.1392	73.7186	6.957562	31.83796
2861	6.66079	3.2139100	73.9625	73.5430	6.956811	31.83370
2862	6.66609	3.2139597	73.7952	73.3767	6.956137	31.82939
2863	6.67094	3.2139721	73.6278	73.2103	6.955538	31.82511
2864	6.67599	3.2140031	73.4573	73.0408	6.954905	31.82083
2865	6.68022	3.2139407	73.2930	72.8774	6.954419	31.81630
2866	6.68341	3.2139095	73.1225	72.7079	6.954043	31.81307
2867	6.68579	3.2138471	72.9520	72.5384	6.953782	31.81027
2868	6.68780	3.2137598	72.7845	72.3719	6.953577	31.80752
2869	6.68929	3.2136974	72.6019	72.1904	6.953423	31.80553
2870	6.69032	3.2135416	72.4375	72.0269	6.953371	31.80295
2871	6.69141	3.2134481	72.2732	71.8636	6.953282	31.80099
2872	6.69208	3.2133297	72.0996	71.6910	6.953256	31.79915
2873	6.69249	3.2131738	71.9324	71.5247	6.953280	31.79714
2874	6.69280	3.2130243	71.7615	71.3549	6.953313	31.79529
2875	6.69321	3.2128685	71.6034	71.1977	6.953336	31.79328
2876	6.69373	3.2127750	71.4360	71.0313	6.953316	31.79185
2877	6.69476	3.2127126	71.2776	70.8737	6.953219	31.79029
2878	6.69605	3.2126939	71.1040	70.7012	6.953068	31.78897
2879	6.69754	3.2127436	70.9246	70.5228	6.952857	31.78821
2880	6.70002	3.2127124	70.7541	70.3533	6.952568	31.78565
2881	6.70378	3.2126812	70.5866	70.1868	6.952123	31.78190
2882	6.70740	3.2127434	70.4221	70.0233	6.951650	31.77931
2883	6.71261	3.2127121	70.2548	69.8570	6.951029	31.77421
2884	6.72035	3.2127120	70.0901	69.6932	6.950085	31.76712
2885	6.73020	3.2127430	69.9227	69.5268	6.948870	31.75840
2886	6.74063	3.2127740	69.7555	69.3605	6.947585	31.74916
2887	6.75137	3.2128049	69.5849	69.1909	6.946262	31.73964
2888	6.76062	3.2128048	69.4236	69.0306	6.945137	31.73117
2889	6.76987	3.2128046	69.2501	68.8581	6.944011	31.72270
2890	6.77720	3.2128357	69.0826	68.6916	6.943103	31.71633
2891	6.78325	3.2128978	68.9031	68.5132	6.942335	31.71151
2892	6.78956	3.2129289	68.7295	68.3405	6.941551	31.70610
2893	6.79498	3.2129537	68.5682	68.1802	6.940877	31.70144
2894	6.80031	3.2130221	68.3916	68.0046	6.940194	31.69735
2895	6.80662	3.2129908	68.2333	67.8472	6.939442	31.69126
2896	6.81256	3.2129907	68.0567	67.6717	6.938717	31.68585
2897	6.81929	3.2129283	67.8892	67.5051	6.937930	31.67904
2898	6.82653	3.2127101	67.7127	67.3296	6.937156	31.67006
2899	6.83590	3.2125916	67.5482	67.1661	6.936076	31.66021
2900	6.84677	3.2125292	67.3779	66.9968	6.934787	31.64960
2901	6.85831	3.2127408	67.2164	66.8363	6.933281	31.64135
2902	6.87224	3.2129898	67.0460	66.6669	6.931469	31.63132
2903	6.88555	3.2131703	66.8572	66.4791	6.929765	31.62113
2904	6.89846	3.2133881	66.6868	66.3097	6.928094	31.61172
2905	6.91209	3.2136932	66.5193	66.1432	6.926292	31.60259
2906	6.92594	3.2136619	66.3396	65.9645	6.924630	31.58962
2907	6.93657	3.2138736	66.1752	65.8011	6.923238	31.58224
2908	6.94627	3.2140167	66.0108	65.6376	6.921992	31.57497
2909	6.95489	3.2141225	65.8313	65.4592	6.920896	31.56830
2910	6.96236	3.2143031	65.6608	65.2897	6.919902	31.56349
2911	6.96994	3.2146083	65.4994	65.1292	6.918834	31.55993
2912	6.97721	3.2147327	65.3227	64.9536	6.917892	31.55471
2913	6.98349	3.2149196	65.1463	64.7781	6.917039	31.55106
2914	6.98920	3.2151936	64.9605	64.5935	6.916212	31.54889
2915	6.99461	3.2153493	64.7810	64.4150	6.915480	31.54572
2916	6.99980	3.2154364	64.6014	64.2364	6.914807	31.54199
2917	7.00458	3.2156545	64.4279	64.0639	6.914121	31.54006
2918	7.00983	3.2157790	64.2542	63.8913	6.913423	31.53669
2919	7.01607	3.2158350	64.0868	63.7248	6.912641	31.53167
2920	7.02132	3.2158349	63.9009	63.5400	6.912004	31.52695
2921	7.02558	3.2158971	63.7183	63.3585	6.911456	31.52381
2922	7.02896	3.2158658	63.5448	63.1860	6.911060	31.52046
2923	7.03130	3.2158657	63.3653	63.0075	6.910775	31.51840
2924	7.03338	3.2158345	63.2037	62.8468	6.910536	31.51623
2925	7.03484	3.2158282	63.0241	62.6683	6.910360	31.51491
2926	7.03603	3.2158032	62.8448	62.4900	6.910224	31.51363
2927	7.03692	3.2157782	62.6682	62.3145	6.910126	31.51263
2928	7.03759	3.2157470	62.4884	62.1357	6.910056	31.51176
2929	7.03832	3.2156846	62.3149	61.9632	6.909995	31.51050
2930	7.03962	3.2156846	62.1383	61.7876	6.909835	31.50939
2931	7.04175	3.2157156	61.9680	61.6183	6.909559	31.50786
2932	7.04492	3.2156844	61.7916	61.4429	6.909188	31.50470
2933	7.04794	3.2157155	61.6117	61.2641	6.908806	31.50236
2934	7.05106	3.2157154	61.4288	61.0823	6.908426	31.49959
2935	7.05512	3.2157153	61.2556	60.9100	6.907934	31.49596
2936	7.05902	3.2157463	61.0849	60.7404	6.907445	31.49281
2937	7.06412	3.2157462	60.9147	60.5711	6.906827	31.48823
2938	7.07000	3.2157773	60.7319	60.3893	6.906100	31.48329
2939	7.07489	3.2157772	60.5492	60.2077	6.905507	31.47890
2940	7.08000	3.2158020	60.3665	60.0261	6.904877	31.47460
2941	7.08557	3.2158330	60.1928	59.8534	6.904188	31.46993
2942	7.09166	3.2159576	60.0255	59.6870	6.903391	31.46580
2943	7.09931	3.2159574	59.8488	59.5114	6.902466	31.45890
2944	7.10614	3.2160196	59.6724	59.3360	6.901611	31.45344
2945	7.11291	3.2160507	59.4836	59.1483	6.900777	31.44769
2946	7.12031	3.2161752	59.3041	58.9698	6.899823	31.44238
2947	7.12896	3.2162934	59.1305	58.7972	6.898722	31.43586
2948	7.13949	3.2164491	58.9540	58.6218	6.897377	31.42803
2949	7.14877	3.2164489	58.7805	58.4492	6.896258	31.41967
2950	7.15466	3.2165423	58.5947	58.2645	6.895500	31.41540
2951	7.16029	3.2166606	58.4119	58.0828	6.894762	31.41164
2952	7.16661	3.2166605	58.2232	57.8952	6.894000	31.40598
2953	7.17182	3.2167227	58.0465	57.7195	6.893340	31.40199
2954	7.17600	3.2167849	57.8669	57.5409	6.892805	31.39896
2955	7.17928	3.2168472	57.7026	57.3775	6.892376	31.39672
2956	7.18273	3.2168471	57.5290	57.2050	6.891959	31.39366
2957	7.18576	3.2168470	57.3493	57.0263	6.891592	31.39099
2958	7.18863	3.2169404	57.1788	56.8568	6.891199	31.38947
2959	7.19165	3.2169403	56.9871	56.6662	6.890831	31.38681
2960	7.19416	3.2169589	56.8196	56.4997	6.890518	31.38481
2961	7.19693	3.2170025	56.6400	56.3211	6.890161	31.38285
2962	7.19985	3.2170273	56.4667	56.1488	6.889795	31.38054
2963	7.20257	3.2170273	56.2839	55.9670	6.889465	31.37816
2964	7.20497	3.2170022	56.0950	55.7793	6.889185	31.37580
2965	7.20721	3.2170022	55.9065	55.5919	6.888911	31.37384
2966	7.20972	3.2170270	55.7176	55.4040	6.888595	31.37192
2967	7.21223	3.2170269	55.5349	55.2224	6.888290	31.36973
2968	7.21494	3.2170268	55.3584	55.0469	6.887961	31.36735
2969	7.21766	3.2170579	55.1787	54.8683	6.887616	31.36530
2970	7.22163	3.2170890	55.0022	54.6928	6.887121	31.36211
2971	7.22727	3.2170889	54.8256	54.5171	6.886441	31.35707
2972	7.23317	3.2170888	54.6458	54.3384	6.885729	31.35180
2973	7.23809	3.2171198	54.4725	54.1661	6.885121	31.34776
2974	7.24284	3.2171197	54.2926	53.9872	6.884547	31.34353
2975	7.24723	3.2171508	54.1070	53.8027	6.884002	31.33997
2976	7.25105	3.2171818	53.9181	53.6149	6.883526	31.33694
2977	7.25439	3.2172129	53.7327	53.4306	6.883106	31.33433
2978	7.25800	3.2172440	53.5528	53.2517	6.882655	31.33147
2979	7.26208	3.2173436	53.3762	53.0761	6.882114	31.32894
2980	7.26799	3.2173996	53.1935	52.8944	6.881375	31.32427
2981	7.27515	3.2175491	53.0078	52.7099	6.880441	31.31948
2982	7.28583	3.2178855	52.8344	52.5374	6.878997	31.31353
2983	7.29990	3.2183466	52.6486	52.3527	6.877086	31.30585
2984	7.31765	3.2186269	52.4690	52.1741	6.874823	31.29290
2985	7.33640	3.2191753	52.2956	52.0017	6.872313	31.28195
2986	7.35888	3.2197299	52.1251	51.8322	6.869356	31.26770
2987	7.38446	3.2200039	51.9422	51.6504	6.866163	31.24765
2988	7.40676	3.2203466	51.7628	51.4719	6.863333	31.23132
2989	7.42691	3.2205271	51.5801	51.2903	6.860837	31.21520
2990	7.44298	3.2205581	51.3881	51.0994	6.858901	31.20116
2991	7.45627	3.2205579	51.2054	50.9178	6.857312	31.18929
2992	7.46647	3.2203769	51.0260	50.7394	6.856179	31.17827
2993	7.47556	3.2203456	50.8402	50.5547	6.855105	31.16986
2994	7.48271	3.2202831	50.6545	50.3700	6.854279	31.16285
2995	7.48760	3.2202206	50.4719	50.1885	6.853722	31.15788
2996	7.49201	3.2201893	50.2983	50.0159	6.853207	31.15366
2997	7.49591	3.2201269	50.1185	49.8371	6.852769	31.14958
2998	7.49890	3.2201580	49.9481	49.6677	6.852394	31.14730
2999	7.50185	3.2201953	49.7685	49.4891	6.852022	31.14514
3000	7.50416	3.2202202	49.5952	49.3168	6.851731	31.14341
3001	7.50595	3.2202201	49.4091	49.1318	6.851514	31.14189
3002	7.50785	3.2201577	49.2295	48.9532	6.851314	31.13960
3003	7.50911	3.2201576	49.0378	48.7626	6.851160	31.13855
3004	7.51032	3.2202199	48.8488	48.5747	6.850982	31.13822
3005	7.51148	3.2202198	48.6662	48.3931	6.850841	31.13727
3006	7.51269	3.2202821	48.4866	48.2146	6.850664	31.13693
3007	7.51405	3.2202197	48.3102	48.0392	6.850527	31.13511
3008	7.51458	3.2202196	48.1243	47.8544	6.850460	31.13472
3009	7.51579	3.2202507	47.9448	47.6759	6.850298	31.13405
3010	7.51684	3.2202818	47.7652	47.4973	6.850154	31.13352
3011	7.51789	3.2202194	47.5945	47.3276	6.850055	31.13199
3012	7.51853	3.2202505	47.4119	47.1461	6.849961	31.13184
3013	7.51937	3.2203128	47.2323	46.9675	6.849828	31.13183
3014	7.52000	3.2203127	47.0434	46.7796	6.849749	31.13135
3015	7.52063	3.2203127	46.8639	46.6012	6.849670	31.13086
3016	7.52116	3.2203438	46.6811	46.4194	6.849589	31.13081
3017	7.52174	3.2203126	46.4954	46.2347	6.849531	31.13004
3018	7.52226	3.2203437	46.3099	46.0503	6.849450	31.12998
3019	7.52279	3.2203436	46.1270	45.8685	6.849384	31.12959
3020	7.52326	3.2203560	45.9414	45.6839	6.849318	31.12939
3021	7.52410	3.2203996	45.7525	45.4961	6.849193	31.12918
3022	7.52474	3.2203746	45.5701	45.3148	6.849126	31.12843
3023	7.52526	3.2203995	45.3963	45.1420	6.849048	31.12830
3024	7.52605	3.2203745	45.2197	44.9663	6.848963	31.12741
3025	7.52668	3.2203993	45.0463	44.7939	6.848872	31.12719
3026	7.52721	3.2203743	44.8696	44.6183	6.848818	31.12653
3027	7.52795	3.2204304	44.6838	44.4335	6.848700	31.12655
3028	7.52895	3.2204303	44.4920	44.2428	6.848577	31.12574
3029	7.52979	3.2203742	44.3185	44.0703	6.848500	31.12446
3030	7.53031	3.2203741	44.1449	43.8977	6.848434	31.12407
3031	7.53089	3.2203990	43.9656	43.7194	6.848350	31.12390
3032	7.53147	3.2203989	43.7826	43.5375	6.848277	31.12346
3033	7.53200	3.2203988	43.5939	43.3498	6.848211	31.12307
3034	7.53242	3.2203427	43.3990	43.1560	6.848183	31.12218
3035	7.53274	3.2203426	43.2225	42.9805	6.848142	31.12198
3036	7.53316	3.2202490	43.0367	42.7959	6.848133	31.12068
3037	7.53321	3.2201554	42.8694	42.6295	6.848167	31.11971
3038	7.53337	3.2201242	42.6896	42.4507	6.848160	31.11931
3039	7.53331	3.2200930	42.5101	42.2722	6.848177	31.11911
3040	7.53321	3.2200306	42.3275	42.0906	6.848216	31.11861
3041	7.53305	3.2199682	42.1477	41.9118	6.848261	31.11817
3042	7.53295	3.2198683	41.9650	41.7302	6.848317	31.11728
3043	7.53263	3.2198184	41.7915	41.5578	6.848375	31.11710
3044	7.53231	3.2197872	41.6087	41.3760	6.848423	31.11713
3045	7.53210	3.2197559	41.4262	41.1945	6.848460	31.11707
3046	7.53205	3.2197247	41.2342	41.0036	6.848477	31.11687
3047	7.53195	3.2196935	41.0456	40.8161	6.848500	31.11671
3048	7.53195	3.2196934	40.8627	40.6342	6.848497	31.11680
3049	7.53189	3.2195999	40.6862	40.4587	6.848544	31.11592
3050	7.53179	3.2195686	40.5128	40.2863	6.848568	31.11576
3051	7.53174	3.2195125	40.3270	40.1015	6.848597	31.11529
3052	7.53147	3.2194812	40.1473	39.9228	6.848640	31.11527
3053	7.53126	3.2194500	39.9616	39.7382	6.848676	31.11521
3054	7.53110	3.2194188	39.7789	39.5565	6.848706	31.11510
3055	7.53100	3.2193875	39.5994	39.3781	6.848729	31.11494
3056	7.53095	3.2192940	39.4227	39.2024	6.848777	31.11406
3057	7.53131	3.2191692	39.2430	39.0237	6.848788	31.11248
3058	7.53242	3.2185894	39.0511	38.8329	6.848928	31.10537
3059	7.53389	3.2180656	38.8565	38.6394	6.848996	31.09853
3060	7.53579	3.2166506	38.6584	38.4424	6.849437	31.08179
3061	7.53816	3.2157905	38.4727	38.2578	6.849559	31.07055
3062	7.54000	3.2150052	38.2899	38.0760	6.849708	31.06058
3063	7.54105	3.2144443	38.1103	37.8974	6.849844	31.05372
3064	7.54190	3.2134286	37.9248	37.7129	6.850222	31.04219
3065	7.54211	3.2129115	37.7390	37.5282	6.850438	31.03655
3066	7.54200	3.2122075	37.5533	37.3436	6.850780	31.02920
3067	7.54163	3.2116530	37.3675	37.1589	6.851083	31.02368
3068	7.54116	3.2111921	37.1909	36.9832	6.851355	31.01925
3069	7.54074	3.2109802	37.0144	36.8077	6.851502	31.01744
3070	7.54042	3.2109490	36.8255	36.6199	6.851550	31.01747
3071	7.54026	3.2108556	36.6216	36.4172	6.851609	31.01671
3072	7.53984	3.2107309	36.4207	36.2174	6.851715	31.01584
3073	7.53963	3.2106125	36.2287	36.0265	6.851792	31.01485
3074	7.53932	3.2104256	36.0400	35.8389	6.851915	31.01322
3075	7.53916	3.2102761	35.8603	35.6602	6.852001	31.01184
3076	7.53900	3.2101826	35.6835	35.4844	6.852060	31.01106
3077	7.53884	3.2099708	35.5011	35.3030	6.852176	31.00902
3078	7.53858	3.2097528	35.3152	35.1182	6.852307	31.00700
3079	7.53832	3.2096033	35.1357	34.9397	6.852406	31.00572
3080	7.53805	3.2092358	34.9561	34.7611	6.852608	31.00210
3081	7.53800	3.2089244	34.7733	34.5794	6.852758	30.99890
3082	7.53784	3.2086815	34.5938	34.4009	6.852888	30.99652
3083	7.53779	3.2081896	34.4142	34.2223	6.853124	30.99139
3084	7.53779	3.2077661	34.2284	34.0375	6.853321	30.98694
3085	7.53774	3.2073676	34.0397	33.8499	6.853513	30.98281
3086	7.53768	3.2069069	33.8447	33.6560	6.853734	30.97802
3087	7.53784	3.2061100	33.6680	33.4803	6.854089	30.96944
3088	7.53811	3.2054377	33.4794	33.2928	6.854372	30.96210
3089	7.53874	3.2044356	33.2966	33.1111	6.854768	30.95090
3090	7.53984	3.2036949	33.1079	32.9234	6.854984	30.94208
3091	7.54100	3.2028423	32.9194	32.7359	6.855245	30.93201
3092	7.54242	3.2022014	32.7364	32.5540	6.855376	30.92398
3093	7.54384	3.2012556	32.5568	32.3754	6.855651	30.91268
3094	7.54563	3.2004282	32.3801	32.1997	6.855825	30.90232
3095	7.54779	3.1993582	32.2067	32.0273	6.856071	30.88905
3096	7.55027	3.1986615	32.0239	31.8455	6.856101	30.87948
3097	7.55269	3.1981390	31.8352	31.6578	6.856055	30.87183
3098	7.55506	3.1975606	31.6462	31.4700	6.856042	30.86363
3099	7.55738	3.1971315	31.4545	31.2793	6.855965	30.85707
3100	7.55954	3.1968329	31.2688	31.0947	6.855844	30.85205
3101	7.56149	3.1966774	31.0922	30.9191	6.855681	30.84874
3102	7.56301	3.1965841	30.9033	30.7312	6.855539	30.84647
3103	7.56428	3.1965218	30.7236	30.5525	6.855414	30.84476
3104	7.56528	3.1964596	30.5318	30.3618	6.855320	30.84329
3105	7.56607	3.1963725	30.3493	30.1804	6.855263	30.84174
3106	7.56660	3.1963724	30.1757	30.0078	6.855196	30.84135
3107	7.56723	3.1963413	30.0022	29.8352	6.855132	30.84054
3108	7.56786	3.1963101	29.8163	29.6504	6.855068	30.83973
3109	7.56828	3.1962852	29.6339	29.4690	6.855025	30.83917
3110	7.56860	3.1962478	29.4541	29.2902	6.855002	30.83857
3111	7.56886	3.1962167	29.2715	29.1086	6.854981	30.83808
3112	7.56918	3.1962166	29.0947	28.9328	6.854940	30.83788
3113	7.56939	3.1961544	28.9091	28.7483	6.854941	30.83711
3114	7.56960	3.1959740	28.7260	28.5662	6.854997	30.83508
3115	7.57002	3.1957936	28.5438	28.3850	6.855029	30.83286
3116	7.57055	3.1957003	28.3579	28.2002	6.855006	30.83148
3117	7.57192	3.1952153	28.1690	28.0124	6.855068	30.82517
3118	7.57624	3.1943884	27.9833	27.8277	6.854939	30.81259
3119	7.58398	3.1931327	27.8006	27.6460	6.854603	30.79240
3120	7.59727	3.1915292	27.6150	27.4615	6.853769	30.76362
3121	7.61504	3.1905223	27.4322	27.2796	6.852115	30.73725
3122	7.63292	3.1892795	27.2496	27.0981	6.850560	30.70829
3123	7.65113	3.1878816	27.0699	26.9194	6.849038	30.67742
3124	7.67083	3.1860555	26.8841	26.7347	6.847540	30.64071
3125	7.69043	3.1839627	26.6924	26.5441	6.846178	30.60129
3126	7.71115	3.1817153	26.4944	26.3471	6.844753	30.55930
3127	7.73267	3.1805358	26.2875	26.1414	6.842730	30.52799
3128	7.75098	3.1785065	26.0926	25.9477	6.841490	30.49051
3129	7.76908	3.1777742	25.9040	25.7600	6.839666	30.46700
3130	7.78561	3.1780780	25.7089	25.5660	6.837546	30.45588
3131	7.80272	3.1793807	25.5234	25.3816	6.834890	30.45484
3132	7.82535	3.1805036	25.3405	25.1998	6.831661	30.44707
3133	7.85415	3.1806894	25.1579	25.0181	6.828137	30.42402
3134	7.88096	3.1814400	24.9660	24.8273	6.824590	30.40871
3135	7.91166	3.1816506	24.7803	24.6426	6.820833	30.38432
3136	7.94355	3.1814392	24.6035	24.4669	6.817133	30.35447
3137	7.97249	3.1809858	24.4117	24.2762	6.813899	30.32467
3138	7.99522	3.1801974	24.2321	24.0976	6.811559	30.29675
3139	8.01311	3.1783791	24.0617	23.9281	6.810271	30.26219
3140	8.02771	3.1753456	23.8728	23.7403	6.809935	30.21772
3141	8.03821	3.1742044	23.6933	23.5617	6.809211	30.19673
3142	8.04706	3.1719969	23.5013	23.3708	6.809174	30.16596
3143	8.05617	3.1705152	23.3217	23.1922	6.808770	30.14260
3144	8.06460	3.1681910	23.1328	23.0044	6.808837	30.11099
3145	8.07260	3.1666233	22.9530	22.8257	6.808605	30.08772
3146	8.08007	3.1653408	22.7707	22.6443	6.808304	30.06791
3147	8.08706	3.1643930	22.5848	22.4595	6.807906	30.05203
3148	8.09283	3.1627083	22.4053	22.2810	6.807992	30.02947
3149	8.09950	3.1610797	22.2196	22.0963	6.807945	30.00674
3150	8.10825	3.1592719	22.0489	21.9266	6.807731	29.98034
3151	8.11872	3.1577430	21.8781	21.7568	6.807186	29.95543
3152	8.13085	3.1563257	21.7111	21.5907	6.806391	29.93028
3153	8.14410	3.1555459	21.5252	21.4058	6.805168	29.91088
3154	8.15719	3.1550384	21.3456	21.2273	6.803839	29.89448
3155	8.17409	3.1544318	21.1689	21.0515	6.802104	29.87382
3156	8.19752	3.1540666	20.9894	20.8730	6.799481	29.85015
3157	8.22108	3.1535343	20.8157	20.7003	6.796921	29.82465
3158	8.24593	3.1524516	20.6298	20.5155	6.794459	29.79233
3159	8.27943	3.1517337	20.4503	20.3369	6.790803	29.75655
3160	8.31581	3.1510098	20.2615	20.1492	6.786812	29.71833
3161	8.34990	3.1501375	20.0820	19.9707	6.783160	29.68055
3162	8.38328	3.1492715	19.9052	19.7949	6.779593	29.64350
3163	8.41474	3.1490053	19.7377	19.6283	6.775982	29.61436
3164	8.43934	3.1484919	19.5613	19.4530	6.773299	29.58844
3165	8.46018	3.1482691	19.3848	19.2774	6.770929	29.56873
3166	8.47678	3.1482256	19.2082	19.1018	6.768982	29.55445
3167	8.48853	3.1481636	19.0284	18.9230	6.767617	29.54404
3168	8.49683	3.1481635	18.8609	18.7564	6.766632	29.53716
3169	8.50314	3.1481324	18.6871	18.5836	6.765897	29.53164
3170	8.50783	3.1480149	18.5138	18.4112	6.765392	29.52657
3171	8.51160	3.1475944	18.3279	18.2265	6.765132	29.51913
3172	8.51748	3.1471740	18.1422	18.0418	6.764623	29.50993
3173	8.52434	3.1465435	17.9626	17.8631	6.764094	29.49774
3174	8.53189	3.1461478	17.7798	17.6813	6.763375	29.48741
3175	8.54063	3.1454988	17.6062	17.5087	6.762631	29.47346
3176	8.55149	3.1452267	17.4328	17.3363	6.761468	29.46166
3177	8.56266	3.1449608	17.2562	17.1607	6.760263	29.44967
3178	8.57692	3.1441265	17.0857	16.9911	6.758951	29.42922
3179	8.59551	3.1408337	16.8939	16.8004	6.758229	29.37977
3180	8.61400	3.1364125	16.7081	16.6157	6.758023	29.31878
3181	8.62996	3.1310745	16.5406	16.4491	6.758524	29.25048
3182	8.64479	3.1267510	16.3763	16.2857	6.758703	29.19366
3183	8.65794	3.1238227	16.2026	16.1129	6.758453	29.15267
3184	8.66904	3.1212096	16.0168	15.9282	6.758304	29.11666
3185	8.67874	3.1189855	15.8371	15.7495	6.758147	29.08583
3186	8.68686	3.1173532	15.6545	15.5679	6.757910	29.06241
3187	8.69407	3.1156966	15.4810	15.3954	6.757793	29.03950
3188	8.70025	3.1142434	15.3011	15.2165	6.757706	29.01954
3189	8.70507	3.1130060	15.1278	15.0442	6.757684	29.00291
3190	8.70962	3.1117011	14.9540	14.8713	6.757723	28.98582
3191	8.71380	3.1104887	14.7775	14.6958	6.757766	28.97000
3192	8.71754	3.1092334	14.6132	14.5324	6.757880	28.95408
3193	8.72068	3.1078307	14.4397	14.3598	6.758129	28.93715
3194	8.72312	3.1067357	14.2751	14.1962	6.758325	28.92395
3195	8.72513	3.1055548	14.1017	14.0238	6.758611	28.91024
3196	8.72659	3.1047615	13.9279	13.8509	6.758788	28.90095
3197	8.72762	3.1043187	13.7544	13.6784	6.758860	28.89562
3198	8.72800	3.1039374	13.5777	13.5027	6.758981	28.89146
3199	8.72811	3.1035808	13.4013	13.3272	6.759124	28.88778
3200	8.72790	3.1023757	13.2185	13.1455	6.759684	28.87563
3201	8.72724	3.1011648	13.0450	12.9729	6.760298	28.86378
3202	8.72545	3.1005194	12.8562	12.7852	6.760795	28.85867
3203	8.72339	3.0996344	12.6674	12.5975	6.761431	28.85132
3204	8.72117	3.0974408	12.4937	12.4247	6.762670	28.83063
3205	8.71906	3.0935159	12.3172	12.2492	6.764669	28.79205
3206	8.71851	3.0897586	12.1467	12.0796	6.766407	28.75392
3207	8.71900	3.0881383	11.9701	11.9040	6.767068	28.73693
3208	8.71998	3.0851012	11.7996	11.7344	6.768304	28.70498
3209	8.72177	3.0821756	11.6350	11.5708	6.769393	28.67352
3210	8.72518	3.0790549	11.4556	11.3924	6.770375	28.63875
3211	8.73061	3.0774121	11.2910	11.2286	6.770458	28.61756
3212	8.73625	3.0747098	11.1022	11.0409	6.770986	28.58532
3213	8.74379	3.0711387	10.9257	10.8654	6.771675	28.54264
3214	8.75383	3.0699445	10.7489	10.6896	6.771005	28.52237
3215	8.76403	3.0654636	10.5664	10.5081	6.771779	28.46826
3216	8.77972	3.0618292	10.3836	10.3263	6.771519	28.41848
3217	8.79710	3.0581597	10.2007	10.1444	6.771070	28.36703
3218	8.81422	3.0558548	10.0181	9.9629	6.770045	28.32982
3219	8.82988	3.0535445	9.8415	9.7872	6.769195	28.29375
3220	8.84489	3.0485902	9.6679	9.6146	6.769595	28.23118
3221	8.86143	3.0398620	9.5005	9.4481	6.771482	28.12890
3222	8.88081	3.0237977	9.3299	9.2784	6.776271	27.94961
3223	8.90651	3.0115211	9.1687	9.1181	6.778611	27.80430
3224	8.93333	2.9936997	9.0041	8.9545	6.783256	27.60198
3225	8.96185	2.9830318	8.8367	8.7879	6.784519	27.47148
3226	8.98778	2.9739027	8.6662	8.6185	6.785408	27.35885
3227	9.00978	2.9671595	8.4897	8.4428	6.785712	27.27362
3228	9.02667	2.9623308	8.3099	8.2641	6.785789	27.21182
3229	9.03902	2.9540102	8.1270	8.0822	6.787948	27.11818
3230	9.04995	2.9433475	7.9536	7.9098	6.791305	27.00200
3231	9.06029	2.9315679	7.7707	7.7279	6.795221	26.87511
3232	9.07112	2.9247285	7.5911	7.5492	6.796903	26.79790
3233	9.08026	2.9220233	7.4084	7.3676	6.796974	26.76378
3234	9.08786	2.8906398	7.2257	7.1859	6.809817	26.44146
3235	9.10226	2.8612548	7.0431	7.0042	6.820943	26.13489
3236	9.12291	2.8354039	6.8727	6.8348	6.829731	25.85996
3237	9.14686	2.7943605	6.6960	6.6591	6.844749	25.43101
3238	9.17515	2.7751243	6.5194	6.4835	6.849639	25.21842
3239	9.20050	2.7582488	6.3336	6.2987	6.853845	25.03199
3240	9.22153	2.7374146	6.1387	6.1049	6.860309	24.80948
3241	9.24142	2.7266792	5.9501	5.9173	6.862491	24.68879
3242	9.25763	2.7193065	5.7520	5.7204	6.863662	24.60428
3243	9.26962	2.7155438	5.5632	5.5326	6.863789	24.55867
3244	9.27776	2.7107950	5.3714	5.3418	6.864829	24.50593
3245	9.28436	2.7086262	5.1796	5.1511	6.864938	24.47992
3246	9.28948	2.7041330	4.9786	4.9512	6.866246	24.43183
3247	9.29426	2.7024976	4.7835	4.7572	6.866350	24.41239
3248	9.29778	2.7010377	4.5949	4.5696	6.866538	24.39555
3249	9.30059	2.6994906	4.4061	4.3818	6.866854	24.37834
3250	9.30279	2.6982006	4.2233	4.2001	6.867134	24.36409
3251	9.30444	2.6968466	4.0223	4.0001	6.867512	24.34959
3252	9.30576	2.6959188	3.8274	3.8064	6.867746	24.33955
3253	9.30670	2.6943202	3.6235	3.6036	6.868320	24.32311
3254	9.30786	2.6924537	3.4256	3.4068	6.868983	24.30387
3255	9.30934	2.6903953	3.2337	3.2159	6.869688	24.28249
3256	9.31121	2.6873001	3.0295	3.0128	6.870795	24.25058
3257	9.31364	2.6850275	2.8319	2.8163	6.871474	24.22646
3258	9.31606	2.6824470	2.6306	2.6161	6.872287	24.19929
3259	9.31848	2.6800129	2.4329	2.4195	6.873036	24.17358
3260	9.32101	2.6780395	2.2379	2.2256	6.873571	24.15237
3261	9.32437	2.6761480	2.0491	2.0378	6.873964	24.13142
3262	9.32795	2.6751588	1.8573	1.8471	6.873938	24.11926
3263	9.33142	2.6749841	1.6684	1.6593	6.873570	24.11526
3264	9.33429	2.6756997	1.4950	1.4868	6.872893	24.12049
3265	9.33577	2.6767005	1.3427	1.3354	6.872267	24.12946
3266	9.33544	2.6772068	1.2025	1.1959	6.872087	24.13475
3267	9.33588	2.6777888	1.0504	1.0446	6.871776	24.14027
3268	9.33743	2.6782893	0.9073	0.9023	6.871361	24.14424
3269	9.33919	2.6787956	0.7611	0.7569	6.870915	24.14812
3270	9.34001	2.6781320	0.6087	0.6053	6.871096	24.14104
3271	9.33952	2.6768108	0.4688	0.4662	6.871731	24.12833
3272	9.33737	2.6750478	0.3772	0.3751	6.872769	24.11233
3273	9.33517	2.6754085	0.3315	0.3296	6.872891	24.11741
3274	9.33539	2.6762755	0.3072	0.3055	6.872486	24.12586
3275	9.33715	2.6752223	0.2675	0.2660	6.872719	24.11425
3276	9.33869	2.6755248	0.2096	0.2084	6.872391	24.11623
3277	9.33963	2.6747510	0.1579	0.1570	6.872608	24.10795
3278	9.33957	2.6735584	0.0969	0.0964	6.873132	24.09619
3279	9.33924	2.6741808	0.0118	0.0117	6.872902	24.10261
3280	9.33842	2.6735351	-0.0099	-0.0098	6.873288	24.09677
3281	9.33605	2.6728953	-0.0067	-0.0066	6.873866	24.09202
3282	9.33385	2.6729011	-0.0036	-0.0036	6.874144	24.09356
3283	9.32982	2.6729477	-0.0006	-0.0006	6.874634	24.09672
3284	9.32393	2.6730583	-0.0099	-0.0098	6.875333	24.10179
3285	9.32052	2.6737214	-0.0099	-0.0099	6.875478	24.11066
3286	9.31914	2.6752456	-0.0100	-0.0100	6.874990	24.12670
3287	9.31771	2.6804315	-0.0038	-0.0037	6.872915	24.17909
3288	9.31314	2.6822483	-0.0038	-0.0038	6.872704	24.20020
3289	9.30510	2.6821844	-0.0038	-0.0038	6.873751	24.20499
3290	9.29624	1.4175615	-0.0068	-0.0068	7.428650	12.07543
3291	9.28766	0.4268007	-0.0070	-0.0069	7.856898	3.32764
3292	9.28029	0.4494813	-0.0039	-0.0039	7.848776	3.51704
3293	9.27655	0.4850928	-0.0069	-0.0069	7.834541	3.81527
3294	9.27468	0.4140038	-0.0040	-0.0040	7.864588	3.22269
3295	9.27264	0.3295032	-0.0101	-0.0100	7.899900	2.52861
3296	9.27050	0.3275540	-0.0070	-0.0069	7.901096	2.51289
3297	9.26737	0.4119885	-0.0040	-0.0040	7.866760	3.20665
3298	9.26390	0.4413424	-0.0072	-0.0072	7.855152	3.45080
3299	9.26055	0.4352188	-0.0041	-0.0041	7.858319	3.40014
3300	9.25714	0.4092225	-0.0074	-0.0073	7.869777	3.18465
3301	9.25401	0.3809037	-0.0044	-0.0044	7.882114	2.95102
3302	9.25065	0.3470655	-0.0045	-0.0044	7.896723	2.67353
3303	9.24769	0.3066448	-0.0044	-0.0044	7.913886	2.34460
3304	9.24466	0.2973671	-0.0045	-0.0044	7.918244	2.26967
3305	9.24208	0.3282530	-0.0013	-0.0013	7.906052	2.52057
3306	9.23906	0.3409721	-0.0075	-0.0075	7.901372	2.62457
3307	9.23620	0.3617498	-0.0077	-0.0077	7.893315	2.79495
3308	9.23318	0.3268870	-0.0046	-0.0046	7.908258	2.51006
3309	9.23038	0.3152339	-0.0077	-0.0076	7.913566	2.41545
3310	9.22675	0.3020457	-0.0109	-0.0108	7.919648	2.30868
3311	9.22302	0.2771948	-0.0106	-0.0106	7.930501	2.10821
3312	9.21895	0.2577488	-0.0077	-0.0077	7.939173	1.95226
3313	9.21461	0.2369172	-0.0077	-0.0077	7.948426	1.78609
3314	9.21017	0.2210597	-0.0050	-0.0050	7.955659	1.66029
3315	9.20539	0.2176304	-0.0017	-0.0017	7.957936	1.63334
3316	9.20083	0.2387569	-0.0077	-0.0077	7.950259	1.80143
3317	9.19655	0.2246294	-0.0080	-0.0079	7.956771	1.68924
3318	9.19282	0.2221620	-0.0080	-0.0079	7.958467	1.66984
3319	9.18903	0.2276398	-0.0051	-0.0051	7.956965	1.71351
3320	9.18486	0.2228168	-0.0111	-0.0110	7.959695	1.67540
3321	9.18042	0.2112823	-0.0051	-0.0050	7.965178	1.58421
3322	9.17576	0.2050645	-0.0081	-0.0081	7.968556	1.53527
3323	9.17076	0.1964668	-0.0112	-0.0112	7.972947	1.46769
3324	9.16594	0.1871123	-0.0082	-0.0081	7.977604	1.39435
3325	9.16100	0.1836288	-0.0051	-0.0050	7.979928	1.36721
3326	9.15607	0.1848886	-0.0082	-0.0081	7.980356	1.37728
3327	9.15113	0.1898403	-0.0055	-0.0055	7.979304	1.41635
3328	9.14636	0.2118836	-0.0084	-0.0084	7.971338	1.59047
3329	9.14154	0.2355323	-0.0085	-0.0085	7.962673	1.77866
3330	9.13655	0.2370639	-0.0023	-0.0023	7.962987	1.79113
3331	9.13124	0.2395321	-0.0084	-0.0084	7.962981	1.81111
3332	9.12614	0.2225522	-0.0115	-0.0115	7.970828	1.67603
3333	9.12072	0.2056038	-0.0024	-0.0024	7.978700	1.54188
3334	9.11530	0.1922829	-0.0024	-0.0024	7.985086	1.43699
3335	9.11037	0.1938792	-0.0087	-0.0086	7.985375	1.44976
3336	9.10527	0.2121675	-0.0028	-0.0028	7.978959	1.59453
3337	9.10073	0.2197987	-0.0088	-0.0088	7.976725	1.65532
3338	9.09580	0.2322778	-0.0027	-0.0027	7.972585	1.75494
3339	9.09126	0.2323970	-0.0090	-0.0089	7.973391	1.75612
3340	9.08710	0.2226167	-0.0090	-0.0090	7.978149	1.67837
