Scan Count	Temperature [ITS-90, deg C]	Conductivity [S/m]	Pressure, Strain Gauge [db]	Depth [salt water, m]	Oxygen Saturation, Weiss [ml/l]	Salinity, Practical [PSU]
1	12.91579	0.0019677	0.1229	0.1222	7.378105	0.01585
2	12.89507	0.0019801	0.1198	0.1192	7.381534	0.01591
3	12.88296	0.0019801	0.1198	0.1192	7.383542	0.01591
4	12.87624	0.0019893	0.1167	0.1161	7.384654	0.01596
5	12.86825	0.0019955	0.1167	0.1160	7.385977	0.01599
6	12.86353	0.0020048	0.1228	0.1221	7.386758	0.01604
7	12.85857	0.0019955	0.1228	0.1221	7.387584	0.01599
8	12.85397	0.0020048	0.1197	0.1191	7.388345	0.01604
9	12.84961	0.0020140	0.1227	0.1221	7.389065	0.01609
10	12.84266	0.0020140	0.1258	0.1251	7.390220	0.01609
11	12.83407	0.0020202	0.1259	0.1252	7.391645	0.01612
12	12.83141	0.0020140	0.1228	0.1221	7.392089	0.01609
13	12.83117	0.0020233	0.1228	0.1221	7.392127	0.01614
14	12.83141	0.0020387	0.1259	0.1252	7.392082	0.01622
15	12.83250	0.0020325	0.1259	0.1253	7.391903	0.01619
16	12.83347	0.0020294	0.1290	0.1283	7.391743	0.01617
17	12.83214	0.0020325	0.1259	0.1252	7.391963	0.01619
18	12.81455	0.0020325	0.1199	0.1192	7.394887	0.01619
19	12.77831	0.0020387	0.1289	0.1282	7.400915	0.01622
20	12.74771	0.0020418	0.1228	0.1221	7.406011	0.01623
21	12.72462	0.0020387	0.1229	0.1223	7.409863	0.01621
22	12.71172	0.0020418	0.1259	0.1252	7.412015	0.01623
23	12.69569	0.0020418	0.1290	0.1283	7.414691	0.01622
24	12.67323	0.0020449	0.1290	0.1283	7.418444	0.01624
25	12.65626	0.0020418	0.1290	0.1282	7.421283	0.01622
26	12.63178	0.0020449	0.1229	0.1222	7.425379	0.01623
27	12.60792	0.0020510	0.1259	0.1252	7.429376	0.01626
28	12.59206	0.0020510	0.1320	0.1313	7.432035	0.01626
29	12.58365	0.0020541	0.1259	0.1253	7.433445	0.01628
30	12.57963	0.0020510	0.1230	0.1223	7.434121	0.01626
31	12.55784	0.0028226	0.1352	0.1344	7.437578	0.02059
32	11.59484	0.0093980	0.1899	0.1889	7.600526	0.06083
33	9.85084	0.1967115	0.2173	0.2161	7.846556	1.44231
34	8.61460	0.4167388	0.2417	0.2404	7.985326	3.30585
35	7.63076	0.7883241	0.3147	0.3130	7.999509	6.72126
36	6.90312	0.8012639	0.3727	0.3706	8.129140	6.98508
37	6.43415	0.8366356	0.3879	0.3857	8.200683	7.41784
38	6.10361	0.8616853	0.3970	0.3948	8.251404	7.73167
39	5.86671	0.8828836	0.4183	0.4160	8.286218	7.99219
40	5.70864	0.8629217	0.4335	0.4311	8.327688	7.83459
41	5.62288	0.8555200	0.4396	0.4372	8.348511	7.78214
42	5.66046	0.8573472	0.4457	0.4433	8.340133	7.79131
43	5.77231	0.8762655	0.4488	0.4463	8.308121	7.94995
44	5.86429	0.8811861	0.4518	0.4493	8.287587	7.97623
45	5.89701	0.8840881	0.4549	0.4524	8.279696	7.99674
46	5.83260	0.9006386	0.4457	0.4433	8.283455	8.17351
47	5.75315	0.9213037	0.4458	0.4434	8.287899	8.39530
48	5.68572	0.9311014	0.4579	0.4554	8.295758	8.50846
49	5.64506	0.9165767	0.4579	0.4554	8.311450	8.37577
50	5.66277	0.9002904	0.4549	0.4524	8.316715	8.21137
51	5.67485	0.9393447	0.4884	0.4857	8.293458	8.59237
52	5.67712	0.9586103	0.5736	0.5705	8.282701	8.78171
53	5.64717	0.9516249	0.6741	0.6704	8.292245	8.72054
54	5.64738	0.9303776	0.7624	0.7582	8.303603	8.51099
55	5.64768	0.9166063	0.8384	0.8338	8.310927	8.37535
56	5.68064	0.9011180	0.8780	0.8732	8.312786	8.21507
57	5.92677	0.9075047	0.8750	0.8702	8.261593	8.21760
58	6.17868	0.9301813	0.8780	0.8732	8.201391	8.37638
59	6.32365	0.9380490	0.8628	0.8581	8.169782	8.41675
60	6.39635	0.9399450	0.8111	0.8066	8.155065	8.41710
61	6.42390	0.9364204	0.7047	0.7008	8.151670	8.37636
62	6.33939	0.9535596	0.5982	0.5949	8.158818	8.56280
63	6.18851	0.9951168	0.4703	0.4677	8.165776	9.00540
64	6.03725	0.9747562	0.3546	0.3527	8.205056	8.84637
65	5.97769	0.9171832	0.2573	0.2559	8.246676	8.29956
66	6.16009	0.8948655	0.1508	0.1500	8.223279	8.03906
67	6.47122	0.6750797	0.1416	0.1408	8.275379	5.88550
68	6.53041	0.1520910	0.1387	0.1379	8.518860	1.20824
69	6.59200	0.1258727	0.1327	0.1319	8.517906	0.98876
70	6.64445	0.1152506	0.1357	0.1349	8.511650	0.90010
71	6.68135	0.1017824	0.1325	0.1318	8.509931	0.78943
72	6.72102	0.0912793	0.1355	0.1348	8.506249	0.70364
73	6.77534	0.0895351	0.1325	0.1318	8.495558	0.68852
74	6.82477	0.0847076	0.1357	0.1350	8.487278	0.64886
75	6.86691	0.0759674	0.1296	0.1289	8.482251	0.57845
76	6.90639	0.0954638	0.1296	0.1289	8.465385	0.73348
77	6.93750	0.0854255	0.1296	0.1289	8.463284	0.65249
78	6.96983	0.0881162	0.1327	0.1319	8.455335	0.67335
79	7.00515	0.0825202	0.1356	0.1349	8.450396	0.62812
80	7.04352	0.0769667	0.1296	0.1289	8.444795	0.58344
81	7.08322	0.0688353	0.1265	0.1258	8.440016	0.51874
82	7.12208	0.0675375	0.1206	0.1199	8.432471	0.50799
83	7.16056	0.0616148	0.1327	0.1320	8.426986	0.46119
84	7.20053	0.0588605	0.1267	0.1260	8.419839	0.43926
85	7.24263	0.0601469	0.1266	0.1259	8.410550	0.44872
86	7.28645	0.0612026	0.1298	0.1291	8.401020	0.45635
87	7.33153	0.0585026	0.1267	0.1260	8.392830	0.43487
88	7.37665	0.0572773	0.1266	0.1260	8.384022	0.42487
89	7.42072	0.0542596	0.1267	0.1260	8.376193	0.40113
90	7.46268	0.0510157	0.1328	0.1320	8.368897	0.37581
91	7.50164	0.0477764	0.1299	0.1291	8.362222	0.35069
92	7.53963	0.0442462	0.1269	0.1262	8.355867	0.32351
93	7.57777	0.0436169	0.1237	0.1231	8.348301	0.31840
94	7.61562	0.0425948	0.1268	0.1261	8.340963	0.31035
95	7.65388	0.0408536	0.1329	0.1322	8.333845	0.29690
96	7.68948	0.0424816	0.1239	0.1232	8.325914	0.30886
97	7.71765	0.0438183	0.1269	0.1262	8.319627	0.31869
98	7.74627	0.0417083	0.1268	0.1261	8.314651	0.30256
99	7.77660	0.0422835	0.1329	0.1322	8.308248	0.30663
100	7.80744	0.0425508	0.1269	0.1262	8.301876	0.30837
101	7.84551	0.0407404	0.1239	0.1232	8.294878	0.29449
102	7.89466	0.0390854	0.1178	0.1172	8.285582	0.28173
103	7.94355	0.0384106	0.1300	0.1293	8.275965	0.27633
104	7.98015	0.0391168	0.1240	0.1233	8.268297	0.28131
105	8.00613	0.0379367	0.1210	0.1204	8.263528	0.27234
106	8.02963	0.0378050	0.1301	0.1294	8.258849	0.27119
107	8.05239	0.0368953	0.1241	0.1234	8.254628	0.26428
108	8.07394	0.0356005	0.1301	0.1294	8.250805	0.25455
109	8.09427	0.0347638	0.1239	0.1233	8.247049	0.24824
110	8.11311	0.0339212	0.1241	0.1235	8.243596	0.24190
111	8.13469	0.0336143	0.1301	0.1294	8.239387	0.23950
112	8.13630	0.3749608	0.1911	0.1900	8.094211	2.99466
113	7.53774	0.7355761	0.2976	0.2960	8.041758	6.25634
114	6.75158	0.7916352	0.4742	0.4716	8.162704	6.92541
115	6.17649	0.8133786	0.6416	0.6381	8.262335	7.25107
116	5.79916	0.8323267	0.8060	0.8016	8.326160	7.51606
117	5.56912	0.8562884	0.9460	0.9408	8.358713	7.80205
118	5.44122	0.8371218	1.0038	0.9983	8.394418	7.64349
119	5.39104	0.8344288	1.0069	1.0013	8.405884	7.62847
120	5.40469	0.8382046	1.0099	1.0044	8.401111	7.66247
121	5.43246	0.8457509	1.0130	1.0074	8.391491	7.73025
122	5.45059	0.8517067	1.0070	1.0015	8.384664	7.78460
123	5.45635	0.8557696	1.0009	0.9954	8.381323	7.82319
124	5.45760	0.8603357	1.0071	1.0015	8.378604	7.86780
125	5.43907	0.8631721	1.0071	1.0015	8.380743	7.90007
126	5.41230	0.8653862	1.0101	1.0046	8.384854	7.92819
127	5.39769	0.8675723	1.0041	0.9986	8.386567	7.95320
128	5.38959	0.8722569	0.9980	0.9925	8.385629	8.00134
129	5.37824	0.8972722	1.0132	1.0077	8.374270	8.25129
130	5.36890	0.9286772	1.0102	1.0047	8.359003	8.56495
131	5.42621	0.9623815	1.0102	1.0046	8.329417	8.88497
132	5.56285	1.0654784	1.0073	1.0017	8.247123	9.87491
133	5.71443	1.2066907	1.0134	1.0078	8.142487	11.24459
134	5.87288	1.3443008	1.0043	0.9988	8.039916	12.57887
135	6.03959	1.5096852	1.0074	1.0019	7.922692	14.19439
136	6.18642	1.6447663	1.0074	1.0018	7.826524	15.51131
137	6.31511	1.7133722	1.0134	1.0078	7.769225	16.15471
138	6.41519	1.7686920	1.0104	1.0049	7.724087	16.67392
139	6.49570	1.8326654	1.0136	1.0080	7.678053	17.29069
140	6.57955	1.9234157	1.0074	1.0019	7.618152	18.18101
141	6.66950	2.0077694	1.0015	0.9960	7.561073	19.00240
142	6.74218	2.0747269	1.0105	1.0050	7.515937	19.65353
143	6.80848	2.1172001	1.0137	1.0081	7.484419	20.05468
144	6.86774	2.1402367	1.0137	1.0081	7.463899	20.25830
145	6.92168	2.1502398	1.0076	1.0021	7.450786	20.32992
146	6.96978	2.1777087	1.0016	0.9961	7.429883	20.58524
147	7.01009	2.2299085	0.9986	0.9931	7.397926	21.10079
148	7.04508	2.2797216	1.0047	0.9991	7.368070	21.59523
149	7.06782	2.3126437	1.0108	1.0053	7.348460	21.92245
150	7.08348	2.3287563	1.0049	0.9993	7.338226	22.07975
151	7.10129	2.3255504	1.0079	1.0023	7.337242	22.03510
152	7.11458	2.3424933	1.0109	1.0054	7.326966	22.20245
153	7.12328	2.3740094	1.0080	1.0025	7.310176	22.52427
154	7.14309	2.3993798	1.0171	1.0115	7.294859	22.77515
155	7.16880	2.4147247	1.0111	1.0055	7.283667	22.91783
156	7.19244	2.4212057	1.0111	1.0055	7.277143	22.96957
157	7.21473	2.4235975	1.0082	1.0026	7.272823	22.97963
158	7.23558	2.4499305	1.0143	1.0087	7.256996	23.23958
159	7.25157	2.4832205	1.0112	1.0057	7.238484	23.57533
160	7.26286	2.5066086	1.0113	1.0057	7.225493	23.81133
161	7.26773	2.5179334	1.0113	1.0057	7.219294	23.92608
162	7.27029	2.5237309	1.0113	1.0057	7.216112	23.98478
163	7.26893	2.5326299	1.0175	1.0119	7.211959	24.07859
164	7.26647	2.5391189	1.0114	1.0059	7.209133	24.14804
165	7.26809	2.5351118	1.0145	1.0089	7.210864	24.10508
166	7.27170	2.5258335	1.0115	1.0059	7.214891	24.00574
167	7.27568	2.5224718	1.0114	1.0058	7.215981	23.96792
168	7.27991	2.5276744	1.0115	1.0060	7.212860	24.01925
169	7.28399	2.5339534	1.0116	1.0061	7.209237	24.08193
170	7.28849	2.5356880	1.0087	1.0031	7.207772	24.09690
171	7.29289	2.5474997	1.0087	1.0031	7.201414	24.21710
172	7.29666	2.5697885	1.0086	1.0031	7.190048	24.44723
173	7.29943	2.5879721	1.0118	1.0063	7.180822	24.63534
174	7.30105	2.5971071	1.0150	1.0094	7.176158	24.72973
175	7.30074	2.5932630	1.0088	1.0033	7.178070	24.68975
176	7.29483	2.5898350	1.0119	1.0063	7.180543	24.65810
177	7.27803	2.5928030	1.0120	1.0065	7.181387	24.70112
178	7.25753	2.5941552	1.0120	1.0065	7.183522	24.72991
179	7.24629	2.6022612	1.0120	1.0065	7.181100	24.82288
180	7.24049	2.5889097	1.0090	1.0034	7.188404	24.68713
181	7.23270	2.5773279	1.0122	1.0066	7.195122	24.57136
182	7.22628	2.5757438	1.0092	1.0037	7.196775	24.55933
183	7.22445	2.5800724	1.0122	1.0067	7.194911	24.60597
184	7.22445	2.5705920	1.0123	1.0068	7.199543	24.50668
185	7.22090	2.5659196	1.0154	1.0099	7.202313	24.46027
186	7.21755	2.5596581	1.0093	1.0037	7.205832	24.39708
187	7.22027	2.5635816	1.0124	1.0068	7.203542	24.43623
188	7.22669	2.5702708	1.0155	1.0099	7.199392	24.50172
189	7.22962	2.5670085	1.0095	1.0039	7.200584	24.46550
190	7.23067	2.5600302	1.0095	1.0040	7.203850	24.39173
191	7.23479	2.5613932	1.0126	1.0070	7.202617	24.40308
192	7.23960	2.5585300	1.0064	1.0009	7.203356	24.36974
193	7.24180	2.5622466	1.0126	1.0070	7.201240	24.40707
194	7.24091	2.5603795	1.0096	1.0040	7.202273	24.38817
195	7.24148	2.5592342	1.0159	1.0103	7.202754	24.37578
196	7.24446	2.5550841	1.0189	1.0133	7.204371	24.33028
197	7.24545	2.5544604	1.0190	1.0134	7.204539	24.32306
198	7.24457	2.5567553	1.0159	1.0103	7.203540	24.34768
199	7.24404	2.5528127	1.0190	1.0134	7.205537	24.30682
200	7.24551	2.5532989	1.0191	1.0135	7.205098	24.31088
201	7.24619	2.5526811	1.0100	1.0044	7.205306	24.30394
202	7.24478	2.5543002	1.0131	1.0075	7.204710	24.32186
203	7.24263	2.5501816	1.0192	1.0136	7.207015	24.28030
204	7.24373	2.5511653	1.0192	1.0136	7.206384	24.28982
205	7.24718	2.5478145	1.0133	1.0077	7.207546	24.25237
206	7.25136	2.5499128	1.0164	1.0108	7.205946	24.27137
207	7.25089	2.5536135	1.0104	1.0049	7.204205	24.31039
208	7.25230	2.5523435	1.0256	1.0199	7.204631	24.29612
209	7.25638	2.5517772	1.0196	1.0140	7.204347	24.28734
210	7.26229	2.5482946	1.0166	1.0110	7.205233	24.24681
211	7.26496	2.5493066	1.0195	1.0139	7.204373	24.25551
212	7.26543	2.5527210	1.0136	1.0081	7.202643	24.29086
213	7.27097	2.5523319	1.0166	1.0111	7.202072	24.28290
214	7.27651	2.5482945	1.0106	1.0051	7.203278	24.23685
215	7.27746	2.5485346	1.0106	1.0051	7.203031	24.23870
216	7.27646	2.5500613	1.0107	1.0051	7.202424	24.25534
217	7.27939	2.5517198	1.0078	1.0022	7.201213	24.27061
218	7.28347	2.5472311	1.0139	1.0083	7.202840	24.22088
219	7.28541	2.5453222	1.0170	1.0114	7.203504	24.19959
220	7.28426	2.5469510	1.0170	1.0114	7.202868	24.21740
221	7.28551	2.5532128	1.0201	1.0145	7.199645	24.28191
222	7.28938	2.5524118	1.0081	1.0025	7.199504	24.27084
223	7.29263	2.5447678	1.0203	1.0147	7.202781	24.18876
224	7.29106	2.5467281	1.0142	1.0086	7.202042	24.21032
225	7.28781	2.5507360	1.0113	1.0057	7.200536	24.25444
226	7.28876	2.5542769	1.0174	1.0118	7.198682	24.29075
227	7.28923	2.5482658	1.0174	1.0118	7.201545	24.22765
228	7.28253	2.5467281	1.0115	1.0059	7.203214	24.21628
229	7.26940	2.5496553	1.0146	1.0090	7.203592	24.25604
230	7.26386	2.5562973	1.0207	1.0151	7.201115	24.32933
231	7.26496	2.5566464	1.0238	1.0182	7.200794	24.33221
232	7.26454	2.5480030	1.0178	1.0122	7.205066	24.24218
233	7.25581	2.5480031	1.0209	1.0153	7.206267	24.24830
234	7.24514	2.5536365	1.0179	1.0123	7.204984	24.31466
235	7.24519	2.5592571	1.0179	1.0123	7.202233	24.37340
236	7.24645	2.5545176	1.0119	1.0064	7.204374	24.32296
237	7.24018	2.5494326	1.0212	1.0156	7.207719	24.27419
238	7.22424	2.5517489	1.0212	1.0156	7.208780	24.30960
239	7.21844	2.5583240	1.0242	1.0186	7.206363	24.38248
240	7.22387	2.5602994	1.0213	1.0156	7.204651	24.39933
241	7.22403	2.5556852	1.0182	1.0126	7.206885	24.35093
242	7.20716	2.5535567	1.0184	1.0128	7.210245	24.34053
243	7.18054	2.5562464	1.0184	1.0128	7.212591	24.38745
244	7.16535	2.5580039	1.0154	1.0098	7.213819	24.41659
245	7.15774	2.5555885	1.0154	1.0099	7.216052	24.39664
246	7.14220	2.5551022	1.0155	1.0099	7.218431	24.40251
247	7.12307	2.5574203	1.0186	1.0130	7.219928	24.44035
248	7.11447	2.5567965	1.0187	1.0131	7.221419	24.43989
249	7.11025	2.5548907	1.0218	1.0162	7.222938	24.42287
250	7.09957	2.5561384	1.0158	1.0102	7.223797	24.44352
251	7.09447	2.5599798	1.0279	1.0222	7.222610	24.48748
252	7.10588	2.5626430	1.0281	1.0224	7.219728	24.50737
253	7.12244	2.5625169	1.0281	1.0225	7.217509	24.49429
254	7.13219	2.5597905	1.0281	1.0224	7.217507	24.45877
255	7.13130	2.5577408	1.0252	1.0196	7.218636	24.43789
256	7.12255	2.5580271	1.0252	1.0196	7.219702	24.44709
257	7.11536	2.5609933	1.0192	1.0136	7.219234	24.48332
258	7.11197	2.5627289	1.0193	1.0137	7.218847	24.50395
259	7.10546	2.5601401	1.0193	1.0137	7.221017	24.48138
260	7.08770	2.5504631	1.0224	1.0168	7.228229	24.39232
261	7.05866	2.5480333	1.0255	1.0199	7.233441	24.38731
262	7.03567	2.5659096	1.0225	1.0169	7.227793	24.59165
263	7.03936	2.5708287	1.0256	1.0200	7.224855	24.64080
264	7.05127	2.5568370	1.0196	1.0140	7.230118	24.48510
265	7.02839	2.5421705	1.0227	1.0171	7.240525	24.34705
266	6.97617	2.5460162	1.0258	1.0201	7.245860	24.42446
267	6.94430	2.5623637	1.0259	1.0203	7.242166	24.61950
268	6.95271	2.5539078	1.0169	1.0113	7.245198	24.52431
269	6.95748	2.5246508	1.0229	1.0173	7.259053	24.21265
270	6.93351	2.5186136	1.0199	1.0143	7.265394	24.16591
271	6.91567	2.5487491	1.0140	1.0084	7.252896	24.49625
272	6.93553	2.5649878	1.0171	1.0115	7.242076	24.65347
273	6.96111	2.5312863	1.0172	1.0116	7.255255	24.27997
274	6.94995	2.5066111	1.0232	1.0176	7.269059	24.02806
275	6.91219	2.5329751	1.0142	1.0086	7.261224	24.33229
276	6.90188	2.5734627	1.0234	1.0178	7.242516	24.76715
277	6.91432	2.5542801	1.0297	1.0240	7.250333	24.55558
278	6.90634	2.5006975	1.0267	1.0210	7.278107	23.99623
279	6.87431	2.5006183	1.0236	1.0180	7.282637	24.01773
280	6.86287	2.5500247	1.0207	1.0151	7.259595	24.54734
281	6.88799	2.5584871	1.0208	1.0151	7.251891	24.61884
282	6.90421	2.5042590	1.0176	1.0120	7.276631	24.03522
283	6.88555	2.4720902	1.0269	1.0213	7.295284	23.70949
284	6.86856	2.5147666	1.0270	1.0213	7.276385	24.17096
285	6.88188	2.5504248	1.0241	1.0184	7.256754	24.53801
286	6.90354	2.5270448	1.0302	1.0245	7.265382	24.27585
287	6.91007	2.4878527	1.0302	1.0246	7.283979	23.85841
288	6.90359	2.5004079	1.0303	1.0246	7.278636	23.99509
289	6.91256	2.5427712	1.0212	1.0156	7.256301	24.43537
290	6.94855	2.5393157	1.0213	1.0157	7.253016	24.37342
291	6.97279	2.4834550	1.0213	1.0157	7.277355	23.76882
292	6.96677	2.4597037	1.0245	1.0189	7.289992	23.52365
293	6.95291	2.4981478	1.0246	1.0190	7.272849	23.93698
294	6.95701	2.5331859	1.0216	1.0159	7.254882	24.30286
295	6.97238	2.5202133	1.0247	1.0190	7.259178	24.15549
296	6.97118	2.4883680	1.0279	1.0222	7.275143	23.82153
297	6.94741	2.4822940	1.0309	1.0253	7.281496	23.77413
298	6.92428	2.5109890	1.0250	1.0193	7.270474	24.09208
299	6.92122	2.5249929	1.0250	1.0193	7.263937	24.24176
300	6.92739	2.4947429	1.0189	1.0133	7.278118	23.91890
301	6.92013	2.4708797	1.0251	1.0195	7.291013	23.67297
302	6.90063	2.4884196	1.0221	1.0164	7.285022	23.87092
303	6.89177	2.5105798	1.0221	1.0165	7.275225	24.11053
304	6.89825	2.5033500	1.0283	1.0226	7.277919	24.02981
305	6.90530	2.4823453	1.0223	1.0167	7.287392	23.80377
306	6.90333	2.4729893	1.0254	1.0198	7.292330	23.70670
307	6.89716	2.4844356	1.0224	1.0168	7.287495	23.83139
308	6.89804	2.5063217	1.0255	1.0199	7.276468	24.06126
309	6.90955	2.5186537	1.0287	1.0230	7.268719	24.18315
310	6.92407	2.5046792	1.0227	1.0171	7.273641	24.02579
311	6.93066	2.4744542	1.0258	1.0202	7.287751	23.70329
312	6.92350	2.4630300	1.0258	1.0202	7.294445	23.58816
313	6.91090	2.4793271	1.0229	1.0173	7.288107	23.76815
314	6.90701	2.4933418	1.0230	1.0174	7.281675	23.91831
315	6.91297	2.4720390	1.0168	1.0113	7.291444	23.69008
316	6.91577	2.4543937	1.0232	1.0175	7.299836	23.50273
317	6.90981	2.4716545	1.0293	1.0236	7.292081	23.68821
318	6.90779	2.5067138	1.0232	1.0175	7.274908	24.05858
319	6.91821	2.5197411	1.0264	1.0207	7.266969	24.18853
320	6.93242	2.4997604	1.0234	1.0178	7.274918	23.96820
321	6.93813	2.4650296	1.0295	1.0239	7.291386	23.59915
322	6.93361	2.4661597	1.0265	1.0208	7.291461	23.61411
323	6.92936	2.4991699	1.0265	1.0209	7.275640	23.96411
324	6.93615	2.4973136	1.0236	1.0180	7.275611	23.93985
325	6.94928	2.4633404	1.0268	1.0212	7.290653	23.57377
326	6.95354	2.4573557	1.0299	1.0242	7.293027	23.50805
327	6.95203	2.4695451	1.0238	1.0182	7.287181	23.63703
328	6.95566	2.4692907	1.0268	1.0212	7.286796	23.63187
329	6.96210	2.4712130	1.0302	1.0245	7.284935	23.64763
330	6.96869	2.4778039	1.0271	1.0214	7.280735	23.71230
331	6.97492	2.4720385	1.0271	1.0215	7.282721	23.64750
332	6.98017	2.4692113	1.0241	1.0185	7.283385	23.61424
333	6.98385	2.4811837	1.0273	1.0217	7.276928	23.73735
334	6.98822	2.4932390	1.0304	1.0248	7.270340	23.86091
335	6.99580	2.4843555	1.0274	1.0218	7.273679	23.76241
336	7.00573	2.4532198	1.0244	1.0188	7.287713	23.42915
337	7.01118	2.4391112	1.0307	1.0250	7.293934	23.27773
338	7.01259	2.4639556	1.0277	1.0221	7.281428	23.53696
339	7.01721	2.5036615	1.0246	1.0190	7.261123	23.95025
340	7.02662	2.4887814	1.0278	1.0222	7.267169	23.78759
341	7.03161	2.4404507	1.0250	1.0193	7.290381	23.27796
342	7.02990	2.4470295	1.0250	1.0193	7.287368	23.34795
343	7.02797	2.5002025	1.0250	1.0194	7.261331	23.90648
344	7.02787	2.5053603	1.0221	1.0164	7.258794	23.96068
345	7.02589	2.4498533	1.0252	1.0196	7.286535	23.38022
346	7.02246	2.4250088	1.0252	1.0196	7.299323	23.12263
347	7.01851	2.4619053	1.0283	1.0227	7.281609	23.51144
348	7.01711	2.5041046	1.0223	1.0167	7.260918	23.95497
349	7.01867	2.4683914	1.0224	1.0168	7.278375	23.57929
350	7.02064	2.4133463	1.0225	1.0169	7.305358	23.00195
351	7.01794	2.4303303	1.0256	1.0199	7.297327	23.18131
352	7.01794	2.4994701	1.0287	1.0230	7.263095	23.90574
353	7.02969	2.5066616	1.0287	1.0230	7.257897	23.97307
354	7.03998	2.4451982	1.0288	1.0232	7.286850	23.32197
355	7.03759	2.4164310	1.0259	1.0203	7.301423	23.02287
356	7.03270	2.4697254	1.0260	1.0203	7.275742	23.58367
357	7.03260	2.5092993	1.0322	1.0265	7.256187	23.99874
358	7.03156	2.4597822	1.0261	1.0205	7.280822	23.48031
359	7.02631	2.4117707	1.0232	1.0176	7.305333	22.98171
360	7.02298	2.4292173	1.0323	1.0266	7.297165	23.16628
361	7.02231	2.4791677	1.0264	1.0207	7.272530	23.68975
362	7.02116	2.4880332	1.0233	1.0176	7.268303	23.78351
363	7.01955	2.4484779	1.0295	1.0238	7.288111	23.37011
364	7.01887	2.4317696	1.0296	1.0239	7.296482	23.19573
365	7.01939	2.4767225	1.0266	1.0210	7.274149	23.66612
366	7.02620	2.5002763	1.0267	1.0211	7.261541	23.90848
367	7.04030	2.4551826	1.0267	1.0211	7.281867	23.42622
368	7.04753	2.4191187	1.0237	1.0181	7.298683	23.04431
369	7.04831	2.4537553	1.0239	1.0183	7.281444	23.40585
370	7.05429	2.5025932	1.0300	1.0243	7.256475	23.91332
371	7.06750	2.4752282	1.0180	1.0124	7.268137	23.61750
372	7.07260	2.4161054	1.0210	1.0154	7.296615	22.99612
373	7.06839	2.4235481	1.0302	1.0245	7.293536	23.07662
374	7.06615	2.4777012	1.0273	1.0216	7.267106	23.64431
375	7.06933	2.4973409	1.0335	1.0279	7.256969	23.84785
376	7.06953	2.4683401	1.0366	1.0309	7.271253	23.54402
377	7.06573	2.4510031	1.0276	1.0219	7.280348	23.36526
378	7.06272	2.4729088	1.0276	1.0219	7.269954	23.59649
379	7.06287	2.4800449	1.0277	1.0221	7.266408	23.67110
380	7.06464	2.4476885	1.0277	1.0221	7.282139	23.33134
381	7.06626	2.4350030	1.0278	1.0222	7.288178	23.19768
382	7.06787	2.4740967	1.0248	1.0192	7.268645	23.60540
383	7.07099	2.4910320	1.0188	1.0132	7.259849	23.78060
384	7.07365	2.4480210	1.0159	1.0104	7.280706	23.32874
385	7.07484	2.4257106	1.0284	1.0227	7.291554	23.09488
386	7.07588	2.4628537	1.0312	1.0255	7.273069	23.48230
387	7.07906	2.4954963	1.0344	1.0288	7.256519	23.82180
388	7.08463	2.4772596	1.0314	1.0258	7.264734	23.62704
389	7.08796	2.4396678	1.0315	1.0259	7.282809	23.23181
390	7.08796	2.4339679	1.0285	1.0228	7.285622	23.17229
391	7.08754	2.4568918	1.0316	1.0260	7.274371	23.41204
392	7.08958	2.4670569	1.0256	1.0200	7.269072	23.51694
393	7.09317	2.4487366	1.0227	1.0171	7.277601	23.32302
394	7.09598	2.4432657	1.0258	1.0202	7.279903	23.26398
395	7.09775	2.4582971	1.0319	1.0262	7.272243	23.41981
396	7.10030	2.4522772	1.0260	1.0204	7.274851	23.35518
397	7.10312	2.4338946	1.0292	1.0235	7.283517	23.16136
398	7.10457	2.4550805	1.0384	1.0326	7.272869	23.38157
399	7.10614	2.4886504	1.0293	1.0237	7.256111	23.73148
400	7.10963	2.4767444	1.0324	1.0267	7.261486	23.60455
401	7.11213	2.4327529	1.0294	1.0237	7.282807	23.14341
402	7.11036	2.4275307	1.0296	1.0239	7.285631	23.09012
403	7.10744	2.4643390	1.0296	1.0239	7.267904	23.47637
404	7.11004	2.4870972	1.0326	1.0270	7.256330	23.71255
405	7.11520	2.4556672	1.0328	1.0272	7.271085	23.38051
406	7.11463	2.4202520	1.0298	1.0241	7.288614	23.01138
407	7.10885	2.4352052	1.0330	1.0274	7.282062	23.17119
408	7.10551	2.4794784	1.0300	1.0243	7.260716	23.63596
409	7.10681	2.4881062	1.0301	1.0244	7.256284	23.72532
410	7.10801	2.4583760	1.0332	1.0276	7.270761	23.41367
411	7.10645	2.4303015	1.0303	1.0246	7.284818	23.12164
412	7.10254	2.4462400	1.0303	1.0247	7.277512	23.29062
413	7.10004	2.4741983	1.0303	1.0247	7.264083	23.58448
414	7.09994	2.4655142	1.0335	1.0278	7.268378	23.49375
415	7.10004	2.4436486	1.0275	1.0218	7.279142	23.26524
416	7.09853	2.4375853	1.0276	1.0219	7.282344	23.20296
417	7.09629	2.4410864	1.0337	1.0280	7.280934	23.24101
418	7.09515	2.4556166	1.0307	1.0251	7.273930	23.39356
419	7.09567	2.4676221	1.0308	1.0251	7.267938	23.51870
420	7.09728	2.4582745	1.0279	1.0222	7.272320	23.41989
421	7.09848	2.4460147	1.0311	1.0254	7.278195	23.29100
422	7.09874	2.4527566	1.0371	1.0314	7.274835	23.36124
423	7.09895	2.4679555	1.0281	1.0225	7.267313	23.51995
424	7.09994	2.4701884	1.0281	1.0225	7.266074	23.54262
425	7.10150	2.4505179	1.0374	1.0317	7.275550	23.33599
426	7.10306	2.4355372	1.0346	1.0289	7.282715	23.17854
427	7.10291	2.4444372	1.0316	1.0259	7.278349	23.27155
428	7.10301	2.4643390	1.0285	1.0229	7.268525	23.47938
429	7.10504	2.4689277	1.0348	1.0291	7.265979	23.52596
430	7.10822	2.4548999	1.0348	1.0292	7.272445	23.37722
431	7.11062	2.4382943	1.0318	1.0262	7.280290	23.20224
432	7.11140	2.4472091	1.0319	1.0263	7.275787	23.29476
433	7.11228	2.4723428	1.0351	1.0294	7.263282	23.55672
434	7.11499	2.4768236	1.0382	1.0325	7.260696	23.60171
435	7.11895	2.4543132	1.0382	1.0325	7.271225	23.36383
436	7.12145	2.4335626	1.0292	1.0236	7.281091	23.14561
437	7.12145	2.4421504	1.0323	1.0266	7.276862	23.23519
438	7.12135	2.4658756	1.0324	1.0267	7.265195	23.48297
439	7.12333	2.4643389	1.0356	1.0299	7.265674	23.46557
440	7.12583	2.4408047	1.0386	1.0329	7.276908	23.21821
441	7.12641	2.4346707	1.0358	1.0301	7.279847	23.15384
442	7.12521	2.4594992	1.0358	1.0301	7.267793	23.41375
443	7.12573	2.4760708	1.0328	1.0272	7.259564	23.58652
444	7.12745	2.4489843	1.0299	1.0242	7.272653	23.30247
445	7.12776	2.4259124	1.0330	1.0273	7.283968	23.06162
446	7.12521	2.4464427	1.0362	1.0305	7.274220	23.27746
447	7.12370	2.4790650	1.0363	1.0306	7.258375	23.61920
448	7.12588	2.4587089	1.0302	1.0246	7.268086	23.40504
449	7.12698	2.4204540	1.0272	1.0216	7.286767	23.00526
450	7.12297	2.4365216	1.0305	1.0248	7.279421	23.17546
451	7.12005	2.4821114	1.0365	1.0308	7.257386	23.65354
452	7.12104	2.4724729	1.0336	1.0279	7.261991	23.55211
453	7.12114	2.4339451	1.0306	1.0250	7.280947	23.14981
454	7.11692	2.4492945	1.0398	1.0341	7.273982	23.31281
455	7.11374	2.4904873	1.0368	1.0311	7.254144	23.74547
456	7.11447	2.4790424	1.0400	1.0342	7.259677	23.62527
457	7.11458	2.4311897	1.0401	1.0343	7.283232	23.12546
458	7.11036	2.4256373	1.0371	1.0314	7.286564	23.07037
459	7.10536	2.4626219	1.0372	1.0315	7.269043	23.45984
460	7.10452	2.4746112	1.0311	1.0255	7.263252	23.58574
461	7.10504	2.4317183	1.0343	1.0286	7.284318	23.13736
462	7.10124	2.4164081	1.0405	1.0348	7.292406	22.98021
463	7.09390	2.4390824	1.0315	1.0258	7.282260	23.22170
464	7.09072	2.4623678	1.0254	1.0198	7.271223	23.46713
465	7.09239	2.4605213	1.0286	1.0229	7.271900	23.44669
466	7.09457	2.4588107	1.0317	1.0260	7.272436	23.42733
467	7.09614	2.4571739	1.0287	1.0231	7.273023	23.40917
468	7.09754	2.4519445	1.0226	1.0170	7.275404	23.35358
469	7.09853	2.4589349	1.0258	1.0202	7.271818	23.42594
470	7.09994	2.4674412	1.0229	1.0173	7.267428	23.51390
471	7.10161	2.4684925	1.0260	1.0204	7.266676	23.52375
472	7.10327	2.4584776	1.0261	1.0205	7.271377	23.41795
473	7.10426	2.4423814	1.0201	1.0145	7.279171	23.24918
474	7.10348	2.4375627	1.0232	1.0176	7.281657	23.19940
475	7.10218	2.4328036	1.0293	1.0236	7.284188	23.15061
476	7.10088	2.4384463	1.0355	1.0298	7.281589	23.21037
477	7.10036	2.4635934	1.0326	1.0270	7.269266	23.47339
478	7.10166	2.4733214	1.0326	1.0270	7.264289	23.57421
479	7.10400	2.4454005	1.0328	1.0271	7.277720	23.28087
480	7.10452	2.4086873	1.0265	1.0209	7.295748	22.89756
481	7.10207	2.3952570	1.0238	1.0181	7.302721	22.75926
482	7.09952	2.4428883	1.0208	1.0152	7.279590	23.25766
483	7.10051	2.4904874	1.0239	1.0182	7.255992	23.75458
484	7.10067	2.4976698	1.0179	1.0123	7.252432	23.82966
485	7.10056	2.4899204	1.0119	1.0063	7.256264	23.74861
486	7.10567	2.4511775	1.0181	1.0125	7.274638	23.34007
487	7.10489	2.4227897	1.0212	1.0156	7.288742	23.04433
488	7.09848	2.3978190	1.0061	1.0006	7.301968	22.78832
489	7.09494	2.3932104	1.0091	1.0036	7.304746	22.74265
490	7.09291	2.4315160	0.9971	0.9916	7.286132	23.14339
491	7.09614	2.4860092	1.0003	0.9948	7.258809	23.71072
492	7.10275	2.5000940	1.0033	0.9978	7.250947	23.85361
493	7.10468	2.4559719	1.0004	0.9949	7.272414	23.39083
494	7.10739	2.4312629	1.0035	0.9979	7.284211	23.13105
495	7.10994	2.4184672	1.0037	0.9981	7.290157	22.99590
496	7.11239	2.3937023	1.0127	1.0072	7.302020	22.73628
497	7.11296	2.3906276	1.0159	1.0103	7.303454	22.70389
498	7.11385	2.4112430	1.0191	1.0135	7.293165	22.91801
499	7.11650	2.4471302	1.0221	1.0165	7.275106	23.29050
500	7.12218	2.4700300	1.0253	1.0197	7.263033	23.52581
501	7.12630	2.4385755	1.0284	1.0228	7.277939	23.19464
502	7.12510	2.3854206	1.0194	1.0138	7.304292	22.64174
503	7.11770	2.3815571	1.0194	1.0138	7.307251	22.60640
504	7.10911	2.4014733	1.0196	1.0140	7.298654	22.81936
505	7.10525	2.4595784	1.0226	1.0170	7.270557	23.42811
506	7.10202	2.4910601	1.0198	1.0141	7.255499	23.75953
507	7.09780	2.4955473	1.0199	1.0143	7.253877	23.80941
508	7.10499	2.4894554	1.0229	1.0173	7.255874	23.74070
509	7.11380	2.4888317	1.0139	1.0083	7.254951	23.72813
510	7.11775	2.4704936	1.0201	1.0145	7.263426	23.53367
511	7.11531	2.4101163	1.0200	1.0144	7.293513	22.90530
512	7.11161	2.3677346	1.0293	1.0236	7.314939	22.46662
513	7.11645	2.3597349	1.0173	1.0117	7.318191	22.38033
514	7.11786	2.3553356	1.0172	1.0116	7.320159	22.33371
515	7.11520	2.3548241	1.0174	1.0118	7.320793	22.33011
516	7.10551	2.3556026	1.0235	1.0179	7.321798	22.34446
517	7.09707	2.3629238	1.0207	1.0151	7.319393	22.42604
518	7.09437	2.3920307	1.0147	1.0092	7.305410	22.73073
519	7.09598	2.4157574	1.0269	1.0213	7.293472	22.97693
520	7.09681	2.3772887	1.0301	1.0244	7.312338	22.57564
521	7.09489	2.3568482	1.0269	1.0213	7.322706	22.36429
522	7.09004	2.3915445	1.0333	1.0276	7.306266	22.72851
523	7.08479	2.4278287	1.0304	1.0247	7.289101	23.11034
524	7.07687	2.4358130	1.0335	1.0278	7.286278	23.19900
525	7.07406	2.4344742	1.0335	1.0278	7.287336	23.18691
526	7.07765	2.4237727	1.0337	1.0281	7.292113	23.07277
527	7.08140	2.3934341	1.0337	1.0280	7.306564	22.75389
528	7.08005	2.3696512	1.0337	1.0281	7.318507	22.50710
529	7.07604	2.3848011	1.0248	1.0191	7.311593	22.66747
530	7.07214	2.4250702	1.0218	1.0162	7.292253	23.09001
531	7.07089	2.4553629	1.0219	1.0163	7.277469	23.40735
532	7.07031	2.4656218	1.0220	1.0164	7.272485	23.51505
533	7.07588	2.4585794	1.0281	1.0224	7.275178	23.43760
534	7.08286	2.4413117	1.0251	1.0195	7.282718	23.25241
535	7.08671	2.4221105	1.0314	1.0257	7.291650	23.04937
536	7.08770	2.4190174	1.0315	1.0258	7.293037	23.01644
537	7.08989	2.4306333	1.0254	1.0198	7.286995	23.13619
538	7.09385	2.4579923	1.0255	1.0199	7.272942	23.41927
539	7.09864	2.4709857	1.0286	1.0230	7.265864	23.55184
540	7.10265	2.4546461	1.0286	1.0230	7.273354	23.37834
541	7.10452	2.4158583	1.0319	1.0262	7.292212	22.97230
542	7.10536	2.3969853	1.0351	1.0294	7.301401	22.77509
543	7.10655	2.3989044	1.0350	1.0293	7.300284	22.79429
544	7.10869	2.4193708	1.0381	1.0324	7.289889	23.00614
545	7.11056	2.4484546	1.0321	1.0265	7.275291	23.30833
546	7.11103	2.4592170	1.0352	1.0296	7.269922	23.42041
547	7.11010	2.4565587	1.0325	1.0268	7.271364	23.39328
548	7.10947	2.4496102	1.0356	1.0299	7.274875	23.32113
549	7.10989	2.4405796	1.0325	1.0268	7.279266	23.22658
550	7.11077	2.4334896	1.0327	1.0270	7.282635	23.15200
551	7.11197	2.4301497	1.0326	1.0269	7.284112	23.11636
552	7.11301	2.4187198	1.0327	1.0270	7.289598	22.99648
553	7.11390	2.3992793	1.0297	1.0241	7.299055	22.79335
554	7.11473	2.4097912	1.0299	1.0242	7.293755	22.90229
555	7.11536	2.4457046	1.0361	1.0304	7.275970	23.27639
556	7.11619	2.4544655	1.0361	1.0304	7.271538	23.36729
557	7.11661	2.4302790	1.0331	1.0275	7.283393	23.11460
558	7.11650	2.4057178	1.0333	1.0276	7.295511	22.85868
559	7.11604	2.4079195	1.0365	1.0308	7.294493	22.88192
560	7.11604	2.4286152	1.0274	1.0217	7.284294	23.09764
561	7.11645	2.3864371	1.0273	1.0217	7.305023	22.65799
562	7.11484	2.6195581	1.0336	1.0279	7.190528	25.09949
563	7.15012	2.7602429	1.0366	1.0309	7.116858	26.55899
564	7.19818	2.7608075	1.0428	1.0371	7.110234	26.52806
565	7.21917	2.7464955	1.0399	1.0342	7.114434	26.36071
566	7.21823	2.7360758	1.0459	1.0402	7.119636	26.25137
567	7.21102	2.7371377	1.0492	1.0434	7.120074	26.26805
568	7.20387	2.6993447	1.0371	1.0314	7.139458	25.87460
569	7.18153	2.6362695	1.0433	1.0375	7.173282	25.22681
570	7.13918	2.6296753	1.0403	1.0346	7.182254	25.18830
571	7.11010	2.6700363	1.0466	1.0408	7.166387	25.63523
572	7.11317	2.7345634	1.0436	1.0379	7.134328	26.31527
573	7.14647	2.7660067	1.0406	1.0349	7.114523	26.62286
574	7.18262	2.7547421	1.0376	1.0319	7.115248	26.47582
575	7.20163	2.7634859	1.0439	1.0381	7.108474	26.55375
576	7.21416	2.7649637	1.0408	1.0351	7.106101	26.55975
577	7.22304	2.7998942	1.0775	1.0715	7.087930	26.92256
578	7.24033	2.8481140	1.1750	1.1685	7.062242	27.42010
579	7.27562	2.9178445	1.2906	1.2835	7.023904	28.13246
580	7.33121	3.0098203	1.4339	1.4260	6.972485	29.06601
581	7.39490	3.0234447	1.5921	1.5834	6.957995	29.15765
582	7.44036	3.0341355	1.7535	1.7439	6.947228	29.23315
583	7.46710	3.0337939	1.9151	1.9045	6.944078	29.20693
584	7.48150	3.0324102	2.1069	2.0953	6.942957	29.18002
585	7.48865	3.0318252	2.3078	2.2951	6.942354	29.16771
586	7.49222	3.0340194	2.4966	2.4829	6.940867	29.18795
587	7.49438	3.0275848	2.6978	2.6830	6.943674	29.11768
588	7.49396	3.0083364	2.9198	2.9038	6.952916	28.91356
589	7.49054	3.0111138	3.1423	3.1250	6.952020	28.94579
590	7.48870	3.0143787	3.3857	3.3671	6.950695	28.98189
591	7.48818	3.0274329	3.6385	3.6185	6.944534	29.12087
592	7.49044	3.0406425	3.8699	3.8486	6.937955	29.25926
593	7.49412	3.0224157	4.1196	4.0969	6.946200	29.06239
594	7.49417	3.0116673	4.3572	4.3332	6.951328	28.94813
595	7.49180	3.0124029	4.5947	4.5694	6.951275	28.95781
596	7.49038	3.0270739	4.8322	4.8056	6.944454	29.11470
597	7.49207	3.0330753	5.0727	5.0448	6.941387	29.17695
598	7.49470	3.0404477	5.3132	5.2840	6.937549	29.25298
599	7.49727	3.0453114	5.5447	5.5141	6.934915	29.30241
600	7.49922	3.0480894	5.7761	5.7443	6.933355	29.33020
601	7.50006	3.0501659	6.0166	5.9835	6.932265	29.35146
602	7.50038	3.0517298	6.2572	6.2227	6.931485	29.36772
603	7.50011	3.0530068	6.4948	6.4590	6.930914	29.38142
604	7.49964	3.0538379	6.7414	6.7042	6.930581	29.39055
605	7.49917	3.0567350	6.9881	6.9496	6.929263	29.42166
606	7.49859	3.0607951	7.2468	7.2068	6.927404	29.46522
607	7.49775	3.0614802	7.4936	7.4523	6.927186	29.47312
608	7.49691	3.0617555	7.7399	7.6973	6.927163	29.47666
609	7.49659	3.0637193	7.9746	7.9307	6.926270	29.49772
610	7.49664	3.0665771	8.2090	8.1638	6.924906	29.52798
611	7.49638	3.0675687	8.4527	8.4060	6.924471	29.53865
612	7.49580	3.0691850	8.6931	8.6452	6.923776	29.55624
613	7.49512	3.0705688	8.9429	8.8936	6.923205	29.57144
614	7.49412	3.0724429	9.1773	9.1267	6.922440	29.59214
615	7.49333	3.0736006	9.4392	9.3871	6.921990	29.60502
616	7.49275	3.0774240	9.6646	9.6113	6.920243	29.64612
617	7.49312	3.0787602	9.9081	9.8534	6.919566	29.65993
618	7.49422	3.0805749	10.1609	10.1048	6.918570	29.67820
619	7.49601	3.0815988	10.3953	10.3380	6.917867	29.68748
620	7.49843	3.0820711	10.6511	10.5923	6.917351	29.69033
621	7.50059	3.0832118	10.9069	10.8467	6.916548	29.70052
622	7.50337	3.0838251	11.1719	11.1102	6.915919	29.70455
623	7.50600	3.0839969	11.4033	11.3404	6.915519	29.70403
624	7.50795	3.0840092	11.6529	11.5886	6.915279	29.70239
625	7.50885	3.0843773	11.8997	11.8340	6.914999	29.70543
626	7.50837	3.0863711	12.1433	12.0762	6.914113	29.72696
627	7.50837	3.0908144	12.3960	12.3276	6.912002	29.77416
628	7.51090	3.0935281	12.6271	12.5574	6.910406	29.80080
629	7.51390	3.0956470	12.8831	12.8119	6.909036	29.82068
630	7.51574	3.0958375	13.1389	13.0663	6.908725	29.82101
631	7.51595	3.0973487	13.3885	13.3145	6.907985	29.83682
632	7.51226	3.0990569	13.6351	13.5598	6.907627	29.85807
633	7.50516	3.0998129	13.8910	13.8142	6.908140	29.87212
634	7.49985	3.1010299	14.1347	14.0565	6.908215	29.88955
635	7.49380	3.1021488	14.3751	14.2957	6.908425	29.90658
636	7.48418	3.1032002	14.6280	14.5471	6.909105	29.92597
637	7.47587	3.1031204	14.8684	14.7862	6.910162	29.93217
638	7.46988	3.1026410	15.1091	15.0255	6.911128	29.93212
639	7.46358	3.1027088	15.3495	15.2646	6.911871	29.93818
640	7.45832	3.1029733	15.6084	15.5221	6.912392	29.94542
641	7.45496	3.1031086	15.8460	15.7584	6.912743	29.94966
642	7.45296	3.1032132	16.0956	16.0065	6.912942	29.95239
643	7.45191	3.1039757	16.3271	16.2368	6.912711	29.96133
644	7.45107	3.1053839	16.5798	16.4881	6.912147	29.97698
645	7.45081	3.1059252	16.8144	16.7213	6.911925	29.98288
646	7.45081	3.1086132	17.0577	16.9633	6.910646	30.01147
647	7.45790	3.1109144	17.3075	17.2117	6.908687	30.02979
648	7.46825	3.1114621	17.5541	17.4570	6.907168	30.02657
649	7.47025	3.1113575	17.7978	17.6993	6.906979	30.02362
650	7.46852	3.1118623	18.0810	17.9808	6.906955	30.03038
651	7.46689	3.1123978	18.3399	18.2383	6.906904	30.03739
652	7.46578	3.1110624	18.5743	18.4714	6.907680	30.02399
653	7.45958	3.1108595	18.8270	18.7227	6.908538	30.02708
654	7.45139	3.1110258	19.0584	18.9528	6.909464	30.03585
655	7.44561	3.1111859	19.3172	19.2102	6.910097	30.04245
656	7.44225	3.1120723	19.5638	19.4554	6.910089	30.05472
657	7.44051	3.1128663	19.8105	19.7008	6.909927	30.06459
658	7.43852	3.1130757	20.0541	19.9429	6.910075	30.06845
659	7.43610	3.1131066	20.3007	20.1882	6.910360	30.07076
660	7.43421	3.1131805	20.5444	20.4305	6.910560	30.07309
661	7.43290	3.1135192	20.7850	20.6698	6.910563	30.07774
662	7.43248	3.1138763	21.0193	20.9028	6.910448	30.08181
663	7.43253	3.1139626	21.2812	21.1632	6.910406	30.08257
664	7.43295	3.1153971	21.5217	21.4024	6.909674	30.09743
665	7.43479	3.1157420	21.7746	21.6538	6.909290	30.09941
666	7.43474	3.1160376	22.0183	21.8961	6.909160	30.10251
667	7.43337	3.1161793	22.2587	22.1352	6.909264	30.10510
668	7.43258	3.1161856	22.5053	22.3804	6.909362	30.10574
669	7.43190	3.1161856	22.7520	22.6257	6.909450	30.10623
670	7.43085	3.1161796	22.9924	22.8648	6.909585	30.10697
671	7.42959	3.1161550	23.2331	23.1041	6.909756	30.10769
672	7.42833	3.1161551	23.4737	23.3434	6.909914	30.10868
673	7.42723	3.1162106	23.7111	23.5795	6.910027	30.11013
674	7.42613	3.1163338	23.9730	23.8400	6.910107	30.11229
675	7.42534	3.1164817	24.2226	24.0882	6.910138	30.11444
676	7.42497	3.1166912	24.4693	24.3334	6.910087	30.11689
677	7.42518	3.1173071	24.7130	24.5758	6.909772	30.12318
678	7.42628	3.1180216	24.9505	24.8119	6.909301	30.12976
679	7.42985	3.1203316	25.1941	25.0541	6.907767	30.15123
680	7.43988	3.1208429	25.4529	25.3115	6.906305	30.14787
681	7.44997	3.1245466	25.6966	25.5538	6.903314	30.17856
682	7.46972	3.1296025	25.9340	25.7899	6.898505	30.21527
683	7.50222	3.1360995	26.1777	26.0323	6.891471	30.25622
684	7.53947	3.1382105	26.4243	26.2775	6.885957	30.24619
685	7.56486	3.1396490	26.6649	26.5167	6.882206	30.23933
686	7.57371	3.1415636	26.9055	26.7560	6.880233	30.25192
687	7.57698	3.1429350	27.1521	27.0011	6.879193	30.26357
688	7.58088	3.1442324	27.3927	27.2404	6.878112	30.27389
689	7.58567	3.1448503	27.6272	27.4736	6.877244	30.27620
690	7.58957	3.1451779	27.8828	27.7277	6.876623	30.27618
691	7.59247	3.1455981	28.1264	27.9699	6.876078	30.27802
692	7.59432	3.1457218	28.3701	28.2123	6.875802	30.27763
693	7.59558	3.1459258	28.6562	28.4968	6.875558	30.27857
694	7.59637	3.1461113	28.9240	28.7631	6.875380	30.27974
695	7.59695	3.1461670	29.1527	28.9905	6.875288	30.27973
696	7.59732	3.1462288	29.4053	29.2417	6.875219	30.27996
697	7.59748	3.1462907	29.6428	29.4778	6.875175	30.28037
698	7.59758	3.1464082	29.8955	29.7291	6.875112	30.28142
699	7.59758	3.1465010	30.1392	29.9714	6.875073	30.28230
700	7.59758	3.1465258	30.3949	30.2257	6.875066	30.28245
701	7.59711	3.1466062	30.6355	30.4649	6.875090	30.28362
702	7.59621	3.1466496	30.8761	30.7042	6.875182	30.28475
703	7.59532	3.1466805	31.1228	30.9495	6.875281	30.28576
704	7.59479	3.1466497	31.3632	31.1885	6.875364	30.28578
705	7.59416	3.1466374	31.6191	31.4429	6.875451	30.28609
706	7.59363	3.1466190	31.8566	31.6791	6.875528	30.28625
707	7.59273	3.1466191	32.1000	31.9212	6.875641	30.28692
708	7.59221	3.1466191	32.3439	32.1637	6.875709	30.28728
709	7.59184	3.1466192	32.5965	32.4148	6.875759	30.28749
710	7.59110	3.1466069	32.8310	32.6481	6.875858	30.28790
711	7.59042	3.1465576	33.0806	32.8962	6.875969	30.28786
712	7.59005	3.1466504	33.3182	33.1325	6.875975	30.28906
713	7.58999	3.1468297	33.5679	33.3808	6.875901	30.29091
714	7.59010	3.1470152	33.8114	33.6229	6.875805	30.29268
715	7.59063	3.1473366	34.0519	33.8620	6.875594	30.29554
716	7.59136	3.1473985	34.3017	34.1104	6.875481	30.29545
717	7.59105	3.1474295	34.5392	34.3466	6.875509	30.29595
718	7.59020	3.1476088	34.7889	34.5949	6.875531	30.29849
719	7.58952	3.1478376	35.0324	34.8370	6.875510	30.30141
720	7.58926	3.1478748	35.2791	35.0823	6.875529	30.30193
721	7.58931	3.1479058	35.5227	35.3245	6.875513	30.30211
722	7.58904	3.1480295	35.7724	35.5728	6.875491	30.30354
723	7.58915	3.1483757	36.0160	35.8151	6.875319	30.30703
724	7.58999	3.1483572	36.2627	36.0604	6.875231	30.30599
725	7.59094	3.1485366	36.5155	36.3117	6.875036	30.30697
726	7.59173	3.1490189	36.7530	36.5478	6.874717	30.31131
727	7.59242	3.1489880	36.9965	36.7900	6.874654	30.31028
728	7.59215	3.1490128	37.2370	37.0291	6.874678	30.31066
729	7.59179	3.1489882	37.4897	37.2803	6.874739	30.31061
730	7.59173	3.1490191	37.7304	37.5197	6.874736	30.31088
731	7.59142	3.1491367	37.9739	37.7618	6.874723	30.31230
732	7.59115	3.1491986	38.2266	38.0131	6.874731	30.31308
733	7.59084	3.1492543	38.4673	38.2524	6.874747	30.31384
734	7.59047	3.1492853	38.7169	38.5006	6.874782	30.31439
735	7.59026	3.1492545	38.9665	38.7488	6.874827	30.31413
736	7.59031	3.1492855	39.2193	39.0001	6.874811	30.31431
737	7.59010	3.1492979	39.4873	39.2666	6.874835	30.31450
738	7.58989	3.1492856	39.7218	39.4998	6.874871	30.31445
739	7.58994	3.1494341	39.9685	39.7451	6.874800	30.31588
740	7.59026	3.1495578	40.2179	39.9931	6.874708	30.31681
741	7.59105	3.1497372	40.4587	40.2325	6.874532	30.31793
742	7.59252	3.1496754	40.7022	40.4746	6.874388	30.31588
743	7.59326	3.1497682	40.9519	40.7229	6.874260	30.31611
744	7.59363	3.1497064	41.1863	40.9559	6.874249	30.31503
745	7.59363	3.1497065	41.4390	41.2073	6.874254	30.31492
746	7.59379	3.1496757	41.6826	41.4494	6.874254	30.31435
747	7.59374	3.1502446	41.9293	41.6947	6.873996	30.32034
748	7.59553	3.1503992	42.1819	41.9459	6.873712	30.32032
749	7.59743	3.1504549	42.4196	42.1822	6.873461	30.31915
750	7.59874	3.1504983	42.6692	42.4304	6.873286	30.31836
751	7.59964	3.1505478	42.9128	42.6726	6.873159	30.31800
752	7.60006	3.1506097	43.1564	42.9149	6.873084	30.31818
753	7.60038	3.1505789	43.4030	43.1600	6.873065	30.31747
754	7.60043	3.1506655	43.6497	43.4054	6.873022	30.31824
755	7.60048	3.1506903	43.9023	43.6565	6.873009	30.31834
756	7.60075	3.1506966	44.1461	43.8989	6.872979	30.31807
757	7.60101	3.1508760	44.3836	44.1350	6.872867	30.31965
758	7.60101	3.1509688	44.6393	44.3893	6.872828	30.32053
759	7.60101	3.1511668	44.8859	44.6345	6.872740	30.32253
760	7.60080	3.1513895	45.1326	44.8798	6.872664	30.32497
761	7.60027	3.1515070	45.3762	45.1220	6.872677	30.32658
762	7.59948	3.1517174	45.6229	45.3672	6.872678	30.32940
763	7.59890	3.1518968	45.8725	45.6155	6.872668	30.33170
764	7.59838	3.1522061	46.1192	45.8607	6.872590	30.33535
765	7.59795	3.1533381	46.3627	46.1029	6.872110	30.34766
766	7.59727	3.1536351	46.6064	46.3451	6.872057	30.35132
767	7.59679	3.1537589	46.8530	46.5903	6.872061	30.35294
768	7.59637	3.1540002	47.1027	46.8386	6.872002	30.35577
769	7.59637	3.1544580	47.3554	47.0898	6.871791	30.36053
770	7.59648	3.1546870	47.5959	47.3290	6.871674	30.36277
771	7.59669	3.1564009	47.8487	47.5804	6.870843	30.38073
772	7.59658	3.1575706	48.0924	47.8226	6.870308	30.39317
773	7.59469	3.1579049	48.3327	48.0616	6.870383	30.39828
774	7.59163	3.1579483	48.5825	48.3099	6.870736	30.40131
775	7.58873	3.1580536	48.8382	48.5642	6.871040	30.40485
776	7.58483	3.1582642	49.0880	48.8125	6.871416	30.41040
777	7.58109	3.1584438	49.3406	49.0636	6.871786	30.41547
778	7.57856	3.1588338	49.5965	49.3181	6.871912	30.42173
779	7.57766	3.1593477	49.8401	49.5603	6.871781	30.42788
780	7.57719	3.1598306	50.0927	49.8115	6.871615	30.43333
781	7.57655	3.1597997	50.3393	50.0566	6.871710	30.43344
782	7.57492	3.1596203	50.5921	50.3080	6.871997	30.43285
783	7.57255	3.1597071	50.8387	50.5532	6.872247	30.43574
784	7.57023	3.1596948	51.0885	50.8015	6.872537	30.43753
785	7.56628	3.1595896	51.3321	51.0437	6.873068	30.43976
786	7.56064	3.1592308	51.5848	51.2950	6.873922	30.44076
787	7.55427	3.1590204	51.8284	51.5372	6.874795	30.44399
788	7.54821	3.1588349	52.0869	51.7942	6.875618	30.44720
789	7.54274	3.1587112	52.3307	52.0366	6.876342	30.45057
790	7.53847	3.1585071	52.5865	52.2909	6.876959	30.45201
791	7.53474	3.1585072	52.8302	52.5332	6.877414	30.45518
792	7.53158	3.1584454	53.0768	52.7784	6.877830	30.45718
793	7.52926	3.1584455	53.3264	53.0266	6.878114	30.45910
794	7.52774	3.1583280	53.5792	53.2780	6.878359	30.45907
795	7.52595	3.1580248	53.8258	53.5231	6.878724	30.45730
796	7.52237	3.1578764	54.0725	53.7684	6.879231	30.45874
797	7.51800	3.1573629	54.3282	54.0226	6.880007	30.45697
798	7.51063	3.1568246	54.5719	54.2649	6.881157	30.45758
799	7.50227	3.1567753	54.8215	54.5130	6.882195	30.46427
800	7.49643	3.1566764	55.0741	54.7642	6.882953	30.46823
801	7.49228	3.1564661	55.3268	55.0155	6.883560	30.46951
802	7.48791	3.1561012	55.5796	55.2669	6.884266	30.46933
803	7.48287	3.1555011	55.8263	55.5121	6.885166	30.46724
804	7.47703	3.1553528	56.0790	55.7633	6.885947	30.47066
805	7.47188	3.1550250	56.3165	55.9995	6.886731	30.47158
806	7.46741	3.1548148	56.5784	56.2598	6.887376	30.47314
807	7.46400	3.1549015	56.8249	56.5049	6.887753	30.47695
808	7.46153	3.1549016	57.0715	56.7501	6.888056	30.47901
809	7.46021	3.1550316	57.3241	57.0013	6.888158	30.48144
810	7.45969	3.1553225	57.5709	57.2466	6.888088	30.48490
811	7.45990	3.1555329	57.8144	57.4888	6.887967	30.48686
812	7.46011	3.1555949	58.0673	57.7402	6.887917	30.48723
813	7.46032	3.1556073	58.3138	57.9853	6.887891	30.48707
814	7.45995	3.1553228	58.5573	58.2274	6.888076	30.48424
815	7.45832	3.1550816	58.8040	58.4726	6.888392	30.48298
816	7.45590	3.1545434	59.0597	58.7269	6.888946	30.47924
817	7.45228	3.1544817	59.3066	58.9723	6.889419	30.48165
818	7.44918	3.1545560	59.5834	59.2475	6.889764	30.48505
819	7.44760	3.1548717	59.8546	59.5171	6.889810	30.48969
820	7.44724	3.1549027	60.0921	59.7532	6.889844	30.49024
821	7.44713	3.1549955	60.3478	60.0075	6.889818	30.49121
822	7.44729	3.1549956	60.5946	60.2529	6.889803	30.49096
823	7.44708	3.1546245	60.8229	60.4798	6.890010	30.48708
824	7.44566	3.1543338	61.0908	60.7462	6.890326	30.48510
825	7.44277	3.1540370	61.3465	61.0004	6.890822	30.48435
826	7.43894	3.1540062	61.5903	61.2428	6.891305	30.48728
827	7.43652	3.1538516	61.8459	61.4970	6.891677	30.48763
828	7.43437	3.1534496	62.0987	61.7482	6.892134	30.48511
829	7.43117	3.1532271	62.3484	61.9965	6.892633	30.48543
830	7.42754	3.1528623	62.6012	62.2478	6.893251	30.48460
831	7.42313	3.1531036	62.8477	62.4929	6.893675	30.49095
832	7.41998	3.1533573	63.0975	62.7413	6.893940	30.49632
833	7.41893	3.1532832	63.3472	62.9895	6.894107	30.49634
834	7.41762	3.1530730	63.5967	63.2376	6.894372	30.49514
835	7.41563	3.1528628	63.8433	63.4828	6.894718	30.49453
836	7.41311	3.1528938	64.0990	63.7370	6.895014	30.49696
837	7.41143	3.1530423	64.3486	63.9851	6.895151	30.49992
838	7.41090	3.1529558	64.5955	64.2306	6.895261	30.49935
839	7.41027	3.1530177	64.8390	64.4727	6.895313	30.50045
840	7.41001	3.1530178	65.0917	64.7239	6.895349	30.50057
841	7.40970	3.1530426	65.3383	64.9691	6.895381	30.50101
842	7.40938	3.1531974	65.5912	65.2205	6.895350	30.50283
843	7.40933	3.1533459	65.8438	65.4716	6.895290	30.50435
844	7.40922	3.1533769	66.0874	65.7138	6.895293	30.50467
845	7.40865	3.1533151	66.3308	65.9558	6.895397	30.50441
846	7.40786	3.1532286	66.5777	66.2012	6.895539	30.50406
847	7.40723	3.1532287	66.8274	66.4495	6.895620	30.50451
848	7.40634	3.1529257	67.0768	66.6975	6.895878	30.50194
849	7.40455	3.1526536	67.3145	66.9338	6.896229	30.50049
850	7.40125	3.1522641	67.5701	67.1879	6.896820	30.49911
851	7.39658	3.1522147	67.8138	67.4302	6.897415	30.50258
852	7.39280	3.1522952	68.0512	67.6662	6.897839	30.50666
853	7.39060	3.1526850	68.3041	67.9176	6.897925	30.51266
854	7.39023	3.1531675	68.5446	68.1568	6.897743	30.51805
855	7.39002	3.1523264	68.7913	68.4019	6.898176	30.50911
856	7.38462	3.1512690	69.0439	68.6531	6.899341	30.50243
857	7.37361	3.1507065	69.2938	68.9015	6.900951	30.50598
858	7.36160	3.1505583	69.5402	69.1466	6.902484	30.51485
859	7.35185	3.1503173	69.8173	69.4220	6.903788	30.52073
860	7.34473	3.1502556	70.1004	69.7034	6.904689	30.52621
861	7.33996	3.1502557	70.3441	69.9457	6.905272	30.53031
862	7.33724	3.1502002	70.5845	70.1847	6.905634	30.53201
863	7.33540	3.1501385	70.8342	70.4330	6.905892	30.53285
864	7.33378	3.1499592	71.0900	70.6873	6.906180	30.53224
865	7.33153	3.1498480	71.3277	70.9236	6.906512	30.53293
866	7.32943	3.1498110	71.5832	71.1776	6.906789	30.53427
867	7.32718	3.1497802	71.8329	71.4258	6.907082	30.53581
868	7.32556	3.1497494	72.0673	71.6589	6.907299	30.53681
869	7.32383	3.1496011	72.3111	71.9012	6.907585	30.53663
870	7.32116	3.1494034	72.5727	72.1613	6.908009	30.53675
871	7.31770	3.1492984	72.8195	72.4067	6.908485	30.53856
872	7.31451	3.1492985	73.0571	72.6429	6.908877	30.54127
873	7.31226	3.1492120	73.3219	72.9061	6.909198	30.54221
874	7.31021	3.1492121	73.5746	73.1574	6.909451	30.54390
875	7.30870	3.1492431	73.8241	73.4054	6.909626	30.54546
876	7.30749	3.1492432	74.0680	73.6479	6.909777	30.54641
877	7.30655	3.1491196	74.3174	73.8958	6.909956	30.54581
878	7.30498	3.1491197	74.5580	74.1351	6.910151	30.54709
879	7.30346	3.1490580	74.8047	74.3802	6.910370	30.54765
880	7.30158	3.1486995	75.0574	74.6315	6.910777	30.54535
881	7.29744	3.1481618	75.3070	74.8797	6.911543	30.54312
882	7.29006	3.1468145	75.5568	75.1279	6.913093	30.53505
883	7.27610	3.1456404	75.8004	75.3701	6.915362	30.53465
884	7.25659	3.1431074	76.0531	75.6214	6.918963	30.52453
885	7.22638	3.1419711	76.3027	75.8695	6.923198	30.53886
886	7.19703	3.1411623	76.5526	76.1179	6.927175	30.55598
887	7.17375	3.1402115	76.7869	76.3509	6.930482	30.56621
888	7.15430	3.1396683	77.0366	76.5991	6.933128	30.57746
889	7.13756	3.1381187	77.2986	76.8595	6.935930	30.57546
890	7.11713	3.1354028	77.5390	77.0986	6.939753	30.56415
891	7.08744	3.1338541	77.7886	77.3467	6.944147	30.57362
892	7.05590	3.1330153	78.0261	77.5828	6.948428	30.59241
893	7.03114	3.1323616	78.2817	77.8369	6.951790	30.60720
894	7.01238	3.1308751	78.5193	78.0731	6.954825	30.60768
895	6.99248	3.1297342	78.7721	78.3244	6.957833	30.61290
896	6.97399	3.1292657	79.0185	78.5694	6.960341	30.62415
897	6.96044	3.1292104	79.2652	78.8146	6.962040	30.63549
898	6.95182	3.1293278	79.5149	79.0628	6.963047	30.64431
899	6.94720	3.1292662	79.7798	79.3262	6.963651	30.64764
900	6.94461	3.1292663	80.0326	79.5775	6.963976	30.64983
901	6.94259	3.1292356	80.3158	79.8590	6.964246	30.65117
902	6.94087	3.1287670	80.5592	80.1010	6.964691	30.64751
903	6.93761	3.1282244	80.7968	80.3372	6.965364	30.64443
904	6.93252	3.1281690	81.0467	80.5856	6.966023	30.64825
905	6.92837	3.1279903	81.2992	80.8366	6.966626	30.64989
906	6.92531	3.1274169	81.5427	81.0787	6.967290	30.64629
907	6.92137	3.1272135	81.7831	81.3177	6.967880	30.64748
908	6.91707	3.1262642	82.0420	81.5751	6.968881	30.64091
909	6.90805	3.1253766	82.2887	81.8203	6.970434	30.63920
910	6.89519	3.1248096	82.5414	82.0715	6.972303	30.64438
911	6.88374	3.1246003	82.7911	82.3198	6.973824	30.65220
912	6.87566	3.1241874	83.0376	82.5648	6.975029	30.65481
913	6.86919	3.1239349	83.2873	82.8131	6.975958	30.65773
914	6.86333	3.1237994	83.5248	83.0491	6.976752	30.66137
915	6.85759	3.1229983	83.7807	83.3035	6.977861	30.65768
916	6.84801	3.1219878	84.0333	83.5546	6.979547	30.65513
917	6.83269	3.1207681	84.2739	83.7938	6.982047	30.65543
918	6.81163	3.1190249	84.5237	84.0421	6.985516	30.65515
919	6.77870	3.1161492	84.7761	84.2930	6.991020	30.65315
920	6.73180	3.1151707	85.0230	84.5385	6.997324	30.68428
921	6.69115	3.1145247	85.2664	84.7805	7.002697	30.71352
922	6.66135	3.1139895	85.5251	85.0377	7.006670	30.73426
923	6.63858	3.1137066	85.7779	85.2890	7.009647	30.75149
924	6.62277	3.1135468	86.0306	85.5402	7.011699	30.76382
925	6.61279	3.1134854	86.2744	85.7825	7.012977	30.77201
926	6.60692	3.1133686	86.5271	86.0337	7.013771	30.77589
927	6.60285	3.1132395	86.7703	86.2755	7.014347	30.77802
928	6.59977	3.1130426	87.0234	86.5270	7.014834	30.77853
929	6.59678	3.1128950	87.2578	86.7601	7.015285	30.77949
930	6.59375	3.1127043	87.5135	87.0143	7.015763	30.78001
931	6.59015	3.1123966	87.7599	87.2593	7.016371	30.77977
932	6.58469	3.1114797	88.0069	87.5047	7.017513	30.77453
933	6.57384	3.1108953	88.2504	87.7468	7.019163	30.77778
934	6.56016	3.1106186	88.4879	87.9829	7.021011	30.78695
935	6.54927	3.1106495	88.7251	88.2187	7.022359	30.79699
936	6.54300	3.1106496	88.9932	88.4852	7.023146	30.80251
937	6.53950	3.1105636	89.2490	88.7396	7.023631	30.80460
938	6.53791	3.1105329	89.4835	88.9726	7.023850	30.80559
939	6.53704	3.1106192	89.7421	89.2297	7.023921	30.80720
940	6.53606	3.1102377	90.0041	89.4902	7.024239	30.80378
941	6.53344	3.1100040	90.2719	89.7564	7.024689	30.80346
942	6.52933	3.1097765	90.5582	90.0409	7.025322	30.80454
943	6.52466	3.1095613	90.8383	90.3194	7.026019	30.80626
944	6.51891	3.1093830	91.0666	90.5463	7.026831	30.80939
945	6.51346	3.1089340	91.3165	90.7947	7.027741	30.80925
946	6.50704	3.1085527	91.5812	91.0579	7.028740	30.81074
947	6.49975	3.1082883	91.8279	91.3031	7.029788	30.81430
948	6.49267	3.1079070	92.0745	91.5483	7.030870	30.81639
949	6.48549	3.1075012	92.3302	91.8024	7.031977	30.81830
950	6.47800	3.1072553	92.5829	92.0536	7.033042	30.82224
951	6.47092	3.1067265	92.8389	92.3081	7.034198	30.82270
952	6.46317	3.1062223	93.0852	92.5529	7.035426	30.82405
953	6.45440	3.1058719	93.3410	92.8073	7.036705	30.82799
954	6.44543	3.1053678	93.5847	93.0495	7.038086	30.83045
955	6.43477	3.1041688	93.8312	93.2945	7.040030	30.82679
956	6.41673	3.1033637	94.0870	93.5488	7.042701	30.83411
957	6.39660	3.1031303	94.3395	93.7998	7.045346	30.84962
958	6.38186	3.1030199	94.5835	94.0423	7.047256	30.86163
959	6.37270	3.1028049	94.8270	94.2844	7.048519	30.86744
960	6.36604	3.1025714	95.0766	94.5325	7.049477	30.87077
961	6.35924	3.1015880	95.3202	94.7746	7.050833	30.86599
962	6.34661	3.1011825	95.5664	95.0194	7.052630	30.87285
963	6.33270	3.1009492	95.8133	95.2649	7.054500	30.88277
964	6.32160	3.1007773	96.0722	95.5222	7.055986	30.89081
965	6.31363	3.1003902	96.3127	95.7612	7.057189	30.89366
966	6.30586	3.0999724	96.5654	96.0124	7.058383	30.89598
967	6.29728	3.0992720	96.8119	96.2575	7.059822	30.89592
968	6.28553	3.0989773	97.0770	96.5210	7.061455	30.90321
969	6.27399	3.0987317	97.3295	96.7720	7.063037	30.91085
970	6.26343	3.0981236	97.5793	97.0203	7.064682	30.91362
971	6.25210	3.0978903	97.8349	97.2744	7.066232	30.92121
972	6.24189	3.0975833	98.0785	97.5165	7.067679	30.92698
973	6.23353	3.0970366	98.3220	97.7586	7.069016	30.92843
974	6.22368	3.0968586	98.5688	98.0039	7.070353	30.93530
975	6.21527	3.0966499	98.8183	98.2519	7.071525	30.94052
976	6.20885	3.0964474	99.0651	98.4972	7.072443	30.94401
977	6.20360	3.0963308	99.3176	98.7483	7.073170	30.94738
978	6.19916	3.0960606	99.5827	99.0117	7.073873	30.94831
979	6.19381	3.0960362	99.8263	99.2539	7.074565	30.95279
980	6.18958	3.0959503	100.0698	99.4960	7.075148	30.95558
981	6.18658	3.0959688	100.3225	99.7472	7.075523	30.95840
982	6.18449	3.0958891	100.5904	100.0134	7.075833	30.95930
983	6.18286	3.0958892	100.8369	100.2585	7.076044	30.96067
984	6.18214	3.0959384	101.1080	100.5279	7.076115	30.96174
985	6.18179	3.0958340	101.3578	100.7762	7.076218	30.96079
986	6.18133	3.0957236	101.6135	101.0304	7.076338	30.95987
987	6.17924	3.0953920	101.8631	101.2785	7.076776	30.95799
988	6.17537	3.0950973	102.1159	101.5298	7.077421	30.95814
989	6.16956	3.0951342	102.3656	101.7780	7.078140	30.96372
990	6.16620	3.0950115	102.6152	102.0261	7.078633	30.96530
991	6.16325	3.0947168	102.8617	102.2712	7.079162	30.96462
992	6.15810	3.0940782	103.1174	102.5253	7.080143	30.96212
993	6.15001	3.0942135	103.3641	102.7705	7.081102	30.97087
994	6.14472	3.0943057	103.6107	103.0156	7.081728	30.97660
995	6.14238	3.0940479	103.8574	103.2609	7.082162	30.97577
996	6.13968	3.0937778	104.1101	103.5120	7.082646	30.97512
997	6.13545	3.0938025	104.3657	103.7661	7.083173	30.97912
998	6.13235	3.0936736	104.6277	104.0265	7.083637	30.98041
999	6.13001	3.0936860	104.8712	104.2686	7.083931	30.98256
1000	6.12848	3.0936738	105.1239	104.5197	7.084136	30.98370
1001	6.12792	3.0937476	105.3858	104.7801	7.084174	30.98491
1002	6.12762	3.0935389	105.6264	105.0193	7.084325	30.98276
1003	6.12579	3.0932442	105.8851	105.2764	7.084713	30.98105
1004	6.12187	3.0933364	106.1196	105.5095	7.085166	30.98553
1005	6.11917	3.0932751	106.3721	105.7605	7.085544	30.98720
1006	6.11760	3.0929928	106.6219	106.0087	7.085894	30.98539
1007	6.11480	3.0930727	106.8747	106.2601	7.086212	30.98871
1008	6.11236	3.0929561	107.1274	106.5112	7.086586	30.98953
1009	6.11063	3.0929317	107.3770	106.7593	7.086822	30.99072
1010	6.10926	3.0928642	107.6234	107.0043	7.087036	30.99111
1011	6.10783	3.0928397	107.8579	107.2374	7.087234	30.99203
1012	6.10636	3.0927477	108.1228	107.5006	7.087473	30.99223
1013	6.10463	3.0927785	108.3573	107.7337	7.087681	30.99404
1014	6.10361	3.0927172	108.6069	107.9818	7.087846	30.99417
1015	6.10285	3.0925760	108.8535	108.2269	7.088021	30.99319
1016	6.10081	3.0921893	109.1034	108.4754	7.088482	30.99064
1017	6.09624	3.0918763	109.3500	108.7205	7.089227	30.99124
1018	6.08958	3.0917230	109.6026	108.9715	7.090154	30.99550
1019	6.08394	3.0917231	109.8401	109.2077	7.090873	31.00054
1020	6.08074	3.0916618	110.0868	109.4528	7.091315	31.00267
1021	6.07840	3.0914286	110.3364	109.7010	7.091736	31.00210
1022	6.07504	3.0914594	110.5770	109.9400	7.092150	31.00539
1023	6.07271	3.0912631	110.8358	110.1973	7.092553	31.00523
1024	6.07011	3.0913737	111.1068	110.4667	7.092830	31.00870
1025	6.06859	3.0912264	111.3624	110.7208	7.093104	31.00833
1026	6.06737	3.0911958	111.6091	110.9660	7.093280	31.00899
1027	6.06559	3.0909626	111.8496	111.2050	7.093630	31.00792
1028	6.06285	3.0909198	112.1053	111.4592	7.094005	31.00983
1029	6.06006	3.0908462	112.3672	111.7194	7.094402	31.01145
1030	6.05797	3.0907542	112.6171	111.9679	7.094719	31.01221
1031	6.05538	3.0906438	112.8634	112.2127	7.095109	31.01324
1032	6.05279	3.0904352	113.1131	112.4609	7.095550	31.01317
1033	6.04949	3.0900854	113.3629	112.7091	7.096154	31.01219
1034	6.04370	3.0893490	113.6124	112.9571	7.097272	31.00919
1035	6.03314	3.0889932	113.8560	113.1992	7.098800	31.01478
1036	6.02218	3.0886620	114.1147	113.4564	7.100366	31.02100
1037	6.01289	3.0884658	114.3615	113.7017	7.101651	31.02720
1038	6.00569	3.0884659	114.6080	113.9467	7.102571	31.03368
1039	6.00087	3.0880733	114.8609	114.1981	7.103390	31.03361
1040	5.99504	3.0879691	115.1137	114.4494	7.104190	31.03767
1041	5.98966	3.0877667	115.3479	114.6822	7.104982	31.04023
1042	5.98565	3.0877362	115.5914	114.9242	7.105512	31.04345
1043	5.98211	3.0875890	115.8351	115.1664	7.106044	31.04495
1044	5.97891	3.0876075	116.1123	115.4419	7.106446	31.04795
1045	5.97698	3.0874419	116.3526	115.6808	7.106781	31.04776
1046	5.97475	3.0872948	116.6052	115.9319	7.107146	31.04805
1047	5.97186	3.0871476	116.8490	116.1742	7.107595	31.04894
1048	5.96887	3.0871477	117.0987	116.4224	7.107980	31.05157
1049	5.96675	3.0871785	117.3515	116.6736	7.108240	31.05374
1050	5.96583	3.0872092	117.6010	116.9216	7.108345	31.05481
1051	5.96548	3.0870927	117.8505	117.1697	7.108456	31.05372
1052	5.96487	3.0870560	118.1005	117.4181	7.108558	31.05375
1053	5.96381	3.0869150	118.3379	117.6540	7.108771	31.05305
1054	5.96203	3.0869457	118.5905	117.9051	7.108986	31.05490
1055	5.96071	3.0868661	118.8462	118.1593	7.109200	31.05510
1056	5.95935	3.0867986	119.0778	118.3895	7.109414	31.05549
1057	5.95767	3.0866822	119.3395	118.6496	7.109693	31.05561
1058	5.95555	3.0865350	119.5860	118.8946	7.110045	31.05580
1059	5.95251	3.0863020	119.8329	119.1400	7.110557	31.05588
1060	5.94840	3.0861855	120.0854	119.3910	7.111145	31.05823
1061	5.94460	3.0861243	120.3289	119.6330	7.111665	31.06092
1062	5.94171	3.0861244	120.5756	119.8782	7.112037	31.06345
1063	5.94014	3.0860324	120.8314	120.1324	7.112290	31.06375
1064	5.93857	3.0859221	121.0993	120.3987	7.112553	31.06383
1065	5.93650	3.0857566	121.3976	120.6952	7.112909	31.06376
1066	5.93321	3.0854254	121.6564	120.9524	7.113505	31.06297
1067	5.92804	3.0850452	121.8909	121.1854	7.114364	31.06336
1068	5.92121	3.0850146	122.1254	121.4186	7.115255	31.06918
1069	5.91650	3.0849841	122.3844	121.6760	7.115876	31.07304
1070	5.91346	3.0848983	122.6459	121.9359	7.116312	31.07475
1071	5.91032	3.0843341	122.8866	122.1751	7.117010	31.07123
1072	5.90425	3.0840766	123.1274	122.4144	7.117922	31.07382
1073	5.89716	3.0841197	123.3798	122.6653	7.118807	31.08068
1074	5.89317	3.0839910	123.6234	122.9074	7.119388	31.08281
1075	5.89023	3.0839604	123.8760	123.1585	7.119783	31.08504
1076	5.88780	3.0839360	124.1165	123.3975	7.120111	31.08689
1077	5.88644	3.0839299	124.3814	123.6609	7.120294	31.08795
1078	5.88543	3.0839362	124.6249	123.9029	7.120425	31.08883
1079	5.88497	3.0839608	124.8749	124.1513	7.120475	31.08941
1080	5.88487	3.0839302	125.1397	124.4145	7.120510	31.08904
1081	5.88482	3.0839671	125.3986	124.6719	7.120503	31.08937
1082	5.88467	3.0838445	125.6481	124.9198	7.120591	31.08803
1083	5.88381	3.0839611	125.8977	125.1679	7.120646	31.09000
1084	5.88371	3.0839366	126.1445	125.4132	7.120677	31.08971
1085	5.88411	3.0839612	126.3972	125.6643	7.120618	31.08949
1086	5.88446	3.0840288	126.6591	125.9246	7.120543	31.08980
1087	5.88477	3.0839920	126.9056	126.1696	7.120529	31.08899
1088	5.88467	3.0839308	127.1613	126.4237	7.120579	31.08828
1089	5.88411	3.0838389	127.4080	126.6689	7.120703	31.08766
1090	5.88274	3.0838451	127.6637	126.9231	7.120880	31.08886
1091	5.88199	3.0839617	127.9163	127.1741	7.120921	31.09074
1092	5.88239	3.0839066	128.1662	127.4225	7.120904	31.08964
1093	5.88224	3.0836674	128.4126	127.6675	7.121053	31.08699
1094	5.87981	3.0835326	128.6623	127.9156	7.121438	31.08760
1095	5.87627	3.0834652	128.9059	128.1577	7.121929	31.08999
1096	5.87384	3.0834960	129.1222	128.3726	7.122227	31.09246
1097	5.87263	3.0835635	129.3839	128.6328	7.122352	31.09421
1098	5.87227	3.0834962	129.6336	128.8809	7.122438	31.09366
1099	5.87172	3.0834410	129.8742	129.1201	7.122543	31.09345
1100	5.87111	3.0834963	130.1146	129.3590	7.122597	31.09451
1101	5.87071	3.0834657	130.3674	129.6103	7.122670	31.09442
1102	5.87030	3.0834413	130.6202	129.8615	7.122740	31.09440
1103	5.86959	3.0833494	130.8728	130.1126	7.122883	31.09391
1104	5.86838	3.0831471	131.1438	130.3819	7.123149	31.09264
1105	5.86585	3.0829141	131.4301	130.6665	7.123599	31.09223
1106	5.86191	3.0827057	131.6978	130.9325	7.124216	31.09341
1107	5.85731	3.0827304	131.9506	131.1838	7.124795	31.09779
1108	5.85422	3.0827059	132.1789	131.4107	7.125206	31.10024
1109	5.85225	3.0826754	132.4409	131.6711	7.125479	31.10159
1110	5.85119	3.0827000	132.6812	131.9099	7.125607	31.10273
1111	5.85069	3.0827062	132.9403	132.1674	7.125674	31.10314
1112	5.85018	3.0826695	133.1869	132.4125	7.125763	31.10308
1113	5.84957	3.0827370	133.4334	132.6575	7.125810	31.10428
1114	5.84993	3.0827616	133.6830	132.9056	7.125758	31.10411
1115	5.85048	3.0828230	133.9298	133.1508	7.125660	31.10417
1116	5.85099	3.0827924	134.1824	133.4019	7.125617	31.10325
1117	5.85119	3.0827925	134.4229	133.6409	7.125597	31.10295
1118	5.85119	3.0827926	134.6877	133.9041	7.125602	31.10283
1119	5.85099	3.0827375	134.9312	134.1461	7.125662	31.10228
1120	5.85043	3.0827314	135.1901	134.4034	7.125742	31.10260
1121	5.84983	3.0826763	135.4427	134.6545	7.125853	31.10243
1122	5.84902	3.0826457	135.6834	134.8937	7.125978	31.10272
1123	5.84811	3.0826703	135.9420	135.1506	7.126087	31.10371
1124	5.84710	3.0825907	136.1978	135.4049	7.126263	31.10363
1125	5.84629	3.0826092	136.4385	135.6441	7.126361	31.10447
1126	5.84594	3.0827380	136.6912	135.8953	7.126345	31.10611
1127	5.84659	3.0827074	136.9530	136.1554	7.126283	31.10504
1128	5.84705	3.0827014	137.2120	136.4128	7.126233	31.10444
1129	5.84695	3.0825911	137.4554	136.6548	7.126309	31.10318
1130	5.84583	3.0826095	137.7019	136.8997	7.126447	31.10430
1131	5.84503	3.0826464	137.9607	137.1569	7.126536	31.10533
1132	5.84462	3.0825913	138.2138	137.4085	7.126622	31.10497
1133	5.84391	3.0825485	138.4571	137.6503	7.126740	31.10503
1134	5.84285	3.0825056	138.7127	137.9044	7.126903	31.10541
1135	5.84204	3.0825302	138.9534	138.1435	7.126999	31.10631
1136	5.84159	3.0825180	139.2002	138.3888	7.127069	31.10648
1137	5.84124	3.0825058	139.4345	138.6217	7.127125	31.10656
1138	5.84088	3.0825488	139.6781	138.8638	7.127153	31.10725
1139	5.84068	3.0825612	139.9399	139.1239	7.127178	31.10745
1140	5.84058	3.0825919	140.1774	139.3600	7.127180	31.10777
1141	5.84068	3.0826104	140.4242	139.6052	7.127163	31.10777
1142	5.84093	3.0825921	140.6889	139.8684	7.127146	31.10721
1143	5.84093	3.0825799	140.9264	140.1044	7.127158	31.10696
1144	5.84093	3.0825616	141.2004	140.3766	7.127173	31.10663
1145	5.84088	3.0825923	141.4625	140.6371	7.127170	31.10690
1146	5.84078	3.0826108	141.7698	140.9426	7.127180	31.10705
1147	5.84093	3.0827090	142.0285	141.1997	7.127115	31.10789
1148	5.84189	3.0827336	142.2689	141.4386	7.126985	31.10717
1149	5.84250	3.0826784	142.5097	141.6779	7.126941	31.10588
1150	5.84225	3.0826479	142.7503	141.9170	7.126995	31.10566
1151	5.84164	3.0826418	143.0184	142.1835	7.127081	31.10603
1152	5.84119	3.0826235	143.2708	142.4343	7.127154	31.10612
1153	5.84048	3.0825929	143.5234	142.6853	7.127266	31.10631
1154	5.83962	3.0826421	143.7731	142.9335	7.127355	31.10753
1155	5.83937	3.0825931	144.0167	143.1756	7.127418	31.10711
1156	5.83886	3.0826115	144.2632	143.4206	7.127479	31.10766
1157	5.83836	3.0825932	144.5070	143.6628	7.127558	31.10781
1158	5.83790	3.0826240	144.7690	143.9233	7.127606	31.10845
1159	5.83770	3.0825811	145.0095	144.1622	7.127659	31.10804
1160	5.83750	3.0826486	145.2650	144.4161	7.127655	31.10886
1161	5.83755	3.0826426	145.5179	144.6675	7.127658	31.10863
1162	5.83780	3.0826488	145.7676	144.9156	7.127627	31.10835
1163	5.83805	3.0827102	146.0110	145.1575	7.127569	31.10869
1164	5.83830	3.0827041	146.2610	145.4059	7.127545	31.10827
1165	5.83851	3.0827103	146.5044	145.6478	7.127521	31.10804
1166	5.83851	3.0827411	146.7601	145.9020	7.127511	31.10826
1167	5.83866	3.0827043	147.0069	146.1473	7.127516	31.10760
1168	5.83836	3.0826799	147.2687	146.4074	7.127573	31.10748
1169	5.83805	3.0822139	147.5182	146.6554	7.127860	31.10244
1170	5.83780	3.0827414	147.7650	146.9006	7.127623	31.10845
1171	5.83760	3.0827660	148.0175	147.1516	7.127641	31.10879
1172	5.83775	3.0827354	148.2550	147.3876	7.127643	31.10820
1173	5.83760	3.0827661	148.5079	147.6389	7.127652	31.10856
1174	5.83770	3.0827969	148.7634	147.8929	7.127629	31.10869
1175	5.83765	3.0827663	149.0130	148.1409	7.127657	31.10828
1176	5.83760	3.0827970	149.2447	148.3712	7.127652	31.10856
1177	5.83760	3.0827357	149.4880	148.6130	7.127689	31.10776
1178	5.83709	3.0827420	149.7286	148.8521	7.127756	31.10819
1179	5.83649	3.0827420	149.9754	149.0974	7.127838	31.10863
1180	5.83613	3.0827053	150.2158	149.3362	7.127908	31.10843
1181	5.83583	3.0827667	150.4654	149.5842	7.127920	31.10928
1182	5.83558	3.0827361	150.7152	149.8325	7.127974	31.10905
1183	5.83537	3.0827669	150.9587	150.0745	7.127989	31.10947
1184	5.83563	3.0827669	151.2113	150.3256	7.127962	31.10912
1185	5.83553	3.0827364	151.4582	150.5709	7.127996	31.10875
1186	5.83532	3.0827671	151.7534	150.8642	7.128012	31.10915
1187	5.83487	3.0827365	152.0245	151.1337	7.128092	31.10910
1188	5.83426	3.0827427	152.2772	151.3848	7.128172	31.10960
1189	5.83381	3.0826815	152.5145	151.6207	7.128267	31.10923
1190	5.83270	3.0825221	152.7582	151.8628	7.128497	31.10836
1191	5.83103	3.0825958	153.0017	152.1048	7.128677	31.11060
1192	5.83032	3.0826756	153.2513	152.3528	7.128731	31.11202
1193	5.83037	3.0827125	153.4950	152.5950	7.128711	31.11227
1194	5.83062	3.0827125	153.7447	152.8432	7.128684	31.11193
1195	5.83103	3.0827065	153.9944	153.0913	7.128641	31.11137
1196	5.83123	3.0826820	154.2471	153.3424	7.128634	31.11079
1197	5.83068	3.0825656	154.4904	153.5842	7.128770	31.10989
1198	5.82926	3.0825841	154.7342	153.8265	7.128947	31.11128
1199	5.82810	3.0826271	155.0021	154.0927	7.129078	31.11271
1200	5.82800	3.0826149	155.2519	154.3409	7.129103	31.11255
1201	5.82795	3.0825966	155.5075	154.5950	7.129125	31.11227
1202	5.82759	3.0825967	155.7723	154.8581	7.129176	31.11247
1203	5.82734	3.0827684	156.0189	155.1032	7.129124	31.11451
1204	5.82820	3.0826275	156.2718	155.3545	7.129093	31.11202
1205	5.82790	3.0826153	156.5276	155.6087	7.129144	31.11205
1206	5.82714	3.0826828	156.7774	155.8569	7.129211	31.11338
1207	5.82709	3.0826522	157.0298	156.1077	7.129239	31.11297
1208	5.82699	3.0827382	157.2856	156.3620	7.129212	31.11390
1209	5.82734	3.0826830	157.5414	156.6161	7.129201	31.11284
1210	5.82739	3.0826831	157.7940	156.8672	7.129200	31.11268
1211	5.82739	3.0827690	158.0407	157.1124	7.129161	31.11352
1212	5.82769	3.0827446	158.2936	157.3637	7.129141	31.11285
1213	5.82759	3.0826772	158.5462	157.6147	7.129194	31.11207
1214	5.82684	3.0826527	158.7957	157.8626	7.129309	31.11238
1215	5.82608	3.0826835	159.0484	158.1138	7.129395	31.11330
1216	5.82577	3.0826774	159.2983	158.3621	7.129443	31.11340
1217	5.82532	3.0826285	159.5387	158.6010	7.129531	31.11316
1218	5.82492	3.0825856	159.7823	158.8431	7.129611	31.11293
1219	5.82416	3.0826531	160.0351	159.0943	7.129678	31.11427
1220	5.82401	3.0826287	160.2817	159.3394	7.129715	31.11402
1221	5.82355	3.0825858	160.5342	159.5902	7.129801	31.11384
1222	5.82295	3.0826288	160.7747	159.8292	7.129861	31.11477
1223	5.82254	3.0826167	161.0338	160.0867	7.129925	31.11488
1224	5.82244	3.0825983	161.2743	160.3257	7.129953	31.11466
1225	5.82239	3.0826291	161.5299	160.5797	7.129949	31.11493
1226	5.82214	3.0826169	161.8040	160.8521	7.129993	31.11489
1227	5.82199	3.0826292	162.0966	161.1428	7.130012	31.11503
1228	5.82178	3.0826293	162.3491	161.3937	7.130044	31.11510
1229	5.82178	3.0826784	162.5893	161.6325	7.130023	31.11554
1230	5.82168	3.0826540	162.8301	161.8717	7.130054	31.11525
1231	5.82163	3.0826786	163.0796	162.1197	7.130053	31.11545
1232	5.82168	3.0826848	163.3353	162.3738	7.130049	31.11535
1233	5.82173	3.0827155	163.5882	162.6251	7.130032	31.11553
1234	5.82173	3.0827401	163.8440	162.8792	7.130025	31.11569
1235	5.82178	3.0827463	164.0846	163.1183	7.130021	31.11560
1236	5.82194	3.0827403	164.3343	163.3664	7.130010	31.11527
1237	5.82194	3.0827158	164.5807	163.6113	7.130028	31.11489
1238	5.82183	3.0827711	164.8306	163.8596	7.130018	31.11548
1239	5.82173	3.0827405	165.0770	164.1045	7.130052	31.11512
1240	5.82148	3.0826854	165.3299	164.3558	7.130118	31.11461
1241	5.82098	3.0827161	165.5917	164.6160	7.130172	31.11530
1242	5.82052	3.0827101	165.8413	164.8640	7.130239	31.11553
1243	5.82022	3.0827163	166.0971	165.1182	7.130280	31.11576
1244	5.81981	3.0827102	166.3588	165.3783	7.130341	31.11594
1245	5.81971	3.0827164	166.6024	165.6203	7.130356	31.11599
1246	5.81916	3.0826552	166.8488	165.8652	7.130464	31.11570
1247	5.81850	3.0825878	167.1077	166.1225	7.130588	31.11543
1248	5.81749	3.0826002	167.3637	166.3768	7.130717	31.11638
1249	5.81653	3.0825880	167.6100	166.6216	7.130851	31.11701
1250	5.81588	3.0825390	167.8691	166.8790	7.130966	31.11695
1251	5.81507	3.0825391	168.1128	167.1212	7.131074	31.11758
1252	5.81446	3.0824962	168.3595	167.3663	7.131179	31.11754
1253	5.81365	3.0824841	168.6211	167.6263	7.131295	31.11803
1254	5.81269	3.0822818	168.8679	167.8715	7.131528	31.11654
1255	5.81002	3.0818404	169.1174	168.1195	7.132106	31.11395
1256	5.80477	3.0817240	169.3733	168.3737	7.132843	31.11736
1257	5.79987	3.0817241	169.6197	168.6186	7.133474	31.12176
1258	5.79694	3.0817549	169.8693	168.8666	7.133837	31.12468
1259	5.79558	3.0817795	170.1160	169.1118	7.134004	31.12609
1260	5.79497	3.0817857	170.3627	169.3569	7.134084	31.12660
1261	5.79477	3.0817796	170.6124	169.6050	7.134118	31.12661
1262	5.79467	3.0817858	170.8682	169.8592	7.134133	31.12665
1263	5.79447	3.0818105	171.1147	170.1041	7.134152	31.12699
1264	5.79442	3.0817247	171.3610	170.3489	7.134208	31.12597
1265	5.79356	3.0817248	171.6081	170.5945	7.134323	31.12664
1266	5.79290	3.0818107	171.8607	170.8454	7.134368	31.12809
1267	5.79315	3.0817862	172.1257	171.1088	7.134354	31.12746
1268	5.79341	3.0818108	172.4208	171.4020	7.134315	31.12736
1269	5.79356	3.0818722	172.6797	171.6592	7.134270	31.12779
1270	5.79396	3.0818784	172.9263	171.9043	7.134220	31.12737
1271	5.79411	3.0818724	173.1759	172.1523	7.134209	31.12705
1272	5.79427	3.0819092	173.4195	172.3944	7.134176	31.12720
1273	5.79416	3.0819277	173.6690	172.6423	7.134185	31.12739
1274	5.79432	3.0818971	173.9218	172.8935	7.134187	31.12679
1275	5.79391	3.0817562	174.1685	173.1387	7.134318	31.12547
1276	5.79290	3.0819279	174.4152	173.3837	7.134362	31.12820
1277	5.79290	3.0818422	174.6648	173.6318	7.134413	31.12713
1278	5.79285	3.0819404	174.9054	173.8709	7.134373	31.12816
1279	5.79326	3.0819895	175.1003	174.0645	7.134300	31.12824
1280	5.79371	3.0819711	175.1916	174.1552	7.134254	31.12758
1281	5.79416	3.0819895	175.1584	174.1223	7.134185	31.12738
1282	5.79447	3.0820753	175.0974	174.0617	7.134100	31.12809
1283	5.79497	3.0821611	175.0488	174.0134	7.133990	31.12861
1284	5.79543	3.0821059	175.0125	173.9773	7.133960	31.12759
1285	5.79568	3.0820630	174.9242	173.8896	7.133948	31.12692
1286	5.79563	3.0820752	174.8058	173.7719	7.133946	31.12716
1287	5.79568	3.0821365	174.6841	173.6510	7.133905	31.12785
1288	5.79593	3.0821916	174.5684	173.5360	7.133841	31.12829
1289	5.79639	3.0821609	174.4561	173.4244	7.133797	31.12758
1290	5.79664	3.0821364	174.3192	173.2883	7.133774	31.12714
1291	5.79664	3.0820934	174.1731	173.1432	7.133793	31.12673
1292	5.79644	3.0820750	173.9968	172.9681	7.133825	31.12679
1293	5.79639	3.0821240	173.7899	172.7624	7.133801	31.12748
1294	5.79664	3.0821607	173.5860	172.5598	7.133745	31.12775
1295	5.79714	3.0821606	173.3882	172.3633	7.133677	31.12738
1296	5.79729	3.0821238	173.1937	172.1701	7.133672	31.12692
1297	5.79734	3.0821605	172.9836	171.9613	7.133642	31.12738
1298	5.79750	3.0821604	172.7799	171.7588	7.133618	31.12734
1299	5.79750	3.0821359	172.5821	171.5623	7.133627	31.12715
1300	5.79745	3.0820745	172.3782	171.3596	7.133661	31.12661
1301	5.79734	3.0820928	172.1651	171.1479	7.133659	31.12701
1302	5.79745	3.0820437	171.9433	170.9276	7.133667	31.12647
1303	5.79750	3.0821233	171.7244	170.7100	7.133615	31.12742
1304	5.79795	3.0821355	171.5266	170.5134	7.133546	31.12723
1305	5.79820	3.0821355	171.3258	170.3139	7.133509	31.12709
1306	5.79840	3.0820618	171.1129	170.1024	7.133517	31.12618
1307	5.79825	3.0820434	170.8999	169.8907	7.133542	31.12621
1308	5.79805	3.0820740	170.6899	169.6820	7.133547	31.12684
1309	5.79830	3.0820923	170.4800	169.4734	7.133500	31.12691
1310	5.79840	3.0820125	170.2670	169.2618	7.133524	31.12602
1311	5.79815	3.0819695	170.0482	169.0444	7.133574	31.12588
1312	5.79785	3.0819879	169.8352	168.8328	7.133599	31.12646
1313	5.79775	3.0819878	169.6070	168.6059	7.133607	31.12666
1314	5.79780	3.0819693	169.3787	168.3791	7.133605	31.12651
1315	5.79775	3.0819877	169.1566	168.1584	7.133597	31.12687
1316	5.79790	3.0819079	168.9192	167.9225	7.133614	31.12595
1317	5.79775	3.0819262	168.6972	167.7019	7.133619	31.12640
1318	5.79750	3.0819261	168.4631	167.4693	7.133646	31.12674
1319	5.79750	3.0819077	168.2318	167.2394	7.133651	31.12664
1320	5.79745	3.0819260	167.9975	167.0066	7.133643	31.12700
1321	5.79734	3.0819075	167.7664	166.7770	7.133660	31.12700
1322	5.79745	3.0818400	167.5261	166.5382	7.133677	31.12626
1323	5.79724	3.0818400	167.2917	166.3052	7.133698	31.12656
1324	5.79724	3.0818460	167.0511	166.0662	7.133689	31.12674
1325	5.79765	3.0818950	166.8110	165.8276	7.133607	31.12702
1326	5.79815	3.0819562	166.5583	165.5765	7.133505	31.12736
1327	5.79936	3.0819991	166.3213	165.3409	7.133323	31.12684
1328	5.80088	3.0821032	166.0779	165.0991	7.133070	31.12672
1329	5.80290	3.0821890	165.8374	164.8601	7.132762	31.12593
1330	5.80512	3.0823361	165.5911	164.6154	7.132396	31.12564
1331	5.80780	3.0824218	165.3505	164.3763	7.132004	31.12425
1332	5.81022	3.0824647	165.1103	164.1376	7.131667	31.12261
1333	5.81219	3.0825382	164.8699	163.8987	7.131372	31.12173
1334	5.81426	3.0826178	164.6234	163.6538	7.131060	31.12083
1335	5.81618	3.0826300	164.3738	163.4058	7.130803	31.11932
1336	5.81774	3.0826851	164.1366	163.1701	7.130570	31.11861
1337	5.81901	3.0826789	163.8935	162.9285	7.130406	31.11749
1338	5.82007	3.0827156	163.6499	162.6863	7.130246	31.11704
1339	5.82077	3.0827094	163.3944	162.4325	7.130154	31.11644
1340	5.82128	3.0827461	163.1571	162.1967	7.130065	31.11649
1341	5.82178	3.0827460	162.9106	161.9518	7.129995	31.11614
1342	5.82224	3.0827398	162.6673	161.7100	7.129935	31.11577
1343	5.82254	3.0827152	162.4207	161.4649	7.129904	31.11533
1344	5.82269	3.0827151	162.1711	161.2169	7.129879	31.11531
1345	5.82274	3.0827089	161.9307	160.9780	7.129871	31.11530
1346	5.82269	3.0826536	161.6783	160.7271	7.129900	31.11485
1347	5.82285	3.0826474	161.4168	160.4673	7.129878	31.11477
1348	5.82295	3.0826841	161.1702	160.2222	7.129841	31.11520
1349	5.82300	3.0826534	160.9269	159.9804	7.129845	31.11492
1350	5.82305	3.0826472	160.6864	159.7415	7.129837	31.11492
1351	5.82310	3.0826287	160.4462	159.5028	7.129835	31.11478
1352	5.82325	3.0826471	160.1936	159.2517	7.129800	31.11496
1353	5.82355	3.0826838	159.9563	159.0160	7.129737	31.11520
1354	5.82401	3.0827144	159.7249	158.7860	7.129658	31.11524
1355	5.82451	3.0827082	159.4723	158.5350	7.129592	31.11482
1356	5.82537	3.0827694	159.2322	158.2963	7.129445	31.11483
1357	5.82618	3.0828000	158.9919	158.0576	7.129320	31.11454
1358	5.82699	3.0828306	158.7455	157.8127	7.129196	31.11425
1359	5.82785	3.0828612	158.4928	157.5616	7.129065	31.11392
1360	5.82876	3.0828611	158.2523	157.3226	7.128944	31.11319
1361	5.82961	3.0828610	158.0030	157.0749	7.128829	31.11252
1362	5.83027	3.0828609	157.7655	156.8389	7.128740	31.11203
1363	5.83052	3.0828302	157.5223	156.5972	7.128718	31.11157
1364	5.83078	3.0828301	157.2789	156.3553	7.128681	31.11145
1365	5.83103	3.0828300	157.0386	156.1165	7.128643	31.11133
1366	5.83108	3.0827993	156.7918	155.8713	7.128647	31.11105
1367	5.83128	3.0827992	156.5455	155.6265	7.128616	31.11098
1368	5.83123	3.0827992	156.3053	155.3878	7.128617	31.11114
1369	5.83138	3.0827991	156.0557	155.1398	7.128593	31.11111
1370	5.83133	3.0828297	155.8185	154.9040	7.128578	31.11161
1371	5.83164	3.0827989	155.5717	154.6588	7.128550	31.11111
1372	5.83209	3.0828295	155.3255	154.4141	7.128471	31.11114
1373	5.83260	3.0828294	155.0759	154.1660	7.128401	31.11080
1374	5.83280	3.0828907	154.8388	153.9304	7.128338	31.11141
1375	5.83325	3.0828600	154.5982	153.6913	7.128291	31.11076
1376	5.83361	3.0828599	154.3521	153.4467	7.128240	31.11055
1377	5.83401	3.0828598	154.1085	153.2047	7.128183	31.11029
1378	5.83431	3.0828597	153.8650	152.9627	7.128139	31.11012
1379	5.83462	3.0828597	153.6155	152.7147	7.128095	31.10996
1380	5.83467	3.0828596	153.3691	152.4699	7.128083	31.11003
1381	5.83477	3.0828288	153.1348	152.2370	7.128081	31.10970
1382	5.83507	3.0828288	152.8882	151.9920	7.128037	31.10954
1383	5.83527	3.0828287	152.6481	151.7534	7.128006	31.10946
1384	5.83553	3.0828286	152.3985	151.5053	7.127969	31.10934
1385	5.83588	3.0828899	152.1580	151.2664	7.127886	31.10982
1386	5.83618	3.0828591	151.9055	151.0154	7.127858	31.10931
1387	5.83659	3.0828591	151.6562	150.7677	7.127801	31.10906
1388	5.83674	3.0828896	151.4066	150.5196	7.127761	31.10937
1389	5.83699	3.0828282	151.1541	150.2687	7.127755	31.10857
1390	5.83740	3.0828895	150.9108	150.0269	7.127666	31.10900
1391	5.83750	3.0828588	150.6676	149.7852	7.127664	31.10868
1392	5.83760	3.0827974	150.4239	149.5430	7.127678	31.10801
1393	5.83770	3.0828279	150.1864	149.3070	7.127644	31.10837
1394	5.83770	3.0828585	149.9369	149.0591	7.127622	31.10883
1395	5.83785	3.0827971	149.6875	148.8112	7.127629	31.10812
1396	5.83800	3.0828277	149.4471	148.5723	7.127589	31.10844
1397	5.83800	3.0827970	149.2005	148.3273	7.127599	31.10821
1398	5.83800	3.0828276	148.9573	148.0856	7.127578	31.10867
1399	5.83815	3.0827968	148.7138	147.8436	7.127570	31.10830
1400	5.83815	3.0827416	148.4796	147.6108	7.127593	31.10779
1401	5.83810	3.0827415	148.2331	147.3658	7.127594	31.10795
1402	5.83810	3.0827660	147.9835	147.1178	7.127576	31.10834
1403	5.83825	3.0827414	147.7370	146.8728	7.127564	31.10804
1404	5.83820	3.0827045	147.4998	146.6371	7.127585	31.10779
1405	5.83825	3.0827106	147.2532	146.3920	7.127570	31.10792
1406	5.83820	3.0826492	147.0129	146.1533	7.127603	31.10740
1407	5.83810	3.0826736	146.7693	145.9112	7.127598	31.10788
1408	5.83800	3.0826490	146.5168	145.6602	7.127618	31.10781
1409	5.83790	3.0826121	146.2737	145.4186	7.127645	31.10761
1410	5.83765	3.0826243	146.0330	145.1794	7.127665	31.10809
1411	5.83750	3.0826243	145.7897	144.9376	7.127679	31.10834
1412	5.83745	3.0825813	145.5403	144.6898	7.127703	31.10803
1413	5.83745	3.0825935	145.2937	144.4447	7.127691	31.10828
1414	5.83740	3.0825934	145.0475	144.2000	7.127692	31.10844
1415	5.83755	3.0825811	144.8067	143.9607	7.127674	31.10827
1416	5.83765	3.0825932	144.5544	143.7099	7.127649	31.10844
1417	5.83815	3.0826116	144.3076	143.4647	7.127570	31.10829
1418	5.83836	3.0825931	144.0614	143.2200	7.127548	31.10801
1419	5.83876	3.0826237	143.8061	142.9663	7.127475	31.10810
1420	5.83921	3.0826420	143.5625	142.7242	7.127402	31.10800
1421	5.83997	3.0826480	143.3160	142.4792	7.127297	31.10749
1422	5.84078	3.0826418	143.0723	142.2371	7.127192	31.10679
1423	5.84149	3.0826785	142.8199	141.9862	7.127077	31.10667
1424	5.84199	3.0826478	142.5735	141.7413	7.127023	31.10598
1425	5.84225	3.0826723	142.3271	141.4964	7.126973	31.10613
1426	5.84235	3.0826231	142.0835	141.2543	7.126980	31.10560
1427	5.84209	3.0825801	141.8341	141.0065	7.127029	31.10547
1428	5.84179	3.0825923	141.5907	140.7646	7.127056	31.10600
1429	5.84149	3.0825309	141.3503	140.5257	7.127122	31.10571
1430	5.84124	3.0825493	141.0796	140.2567	7.127139	31.10627
1431	5.84108	3.0824756	140.8209	139.9995	7.127191	31.10571
1432	5.84098	3.0825307	140.5746	139.7547	7.127169	31.10653
1433	5.84093	3.0824571	140.3400	139.5216	7.127209	31.10587
1434	5.84078	3.0824447	140.0996	139.2827	7.127230	31.10598
1435	5.84043	3.0824263	139.8532	139.0378	7.127279	31.10622
1436	5.84022	3.0824139	139.6128	138.7989	7.127306	31.10638
1437	5.84002	3.0823832	139.3726	138.5602	7.127343	31.10633
1438	5.83997	3.0823647	139.1290	138.3181	7.127353	31.10629
1439	5.83967	3.0823830	138.8857	138.0763	7.127377	31.10688
1440	5.83977	3.0823952	138.6391	137.8312	7.127352	31.10704
1441	5.83982	3.0823829	138.3927	137.5863	7.127347	31.10697
1442	5.83987	3.0823583	138.1584	137.3534	7.127348	31.10676
1443	5.83982	3.0823337	137.9091	137.1056	7.127362	31.10665
1444	5.83997	3.0823582	137.6747	136.8727	7.127325	31.10689
1445	5.84017	3.0823581	137.4252	136.6247	7.127294	31.10682
1446	5.84048	3.0823641	137.1908	136.3918	7.127247	31.10672
1447	5.84083	3.0824131	136.9384	136.1409	7.127171	31.10706
1448	5.84134	3.0824253	136.6947	135.8987	7.127094	31.10685
1449	5.84189	3.0823823	136.4574	135.6630	7.127041	31.10597
1450	5.84235	3.0824129	136.2079	135.4150	7.126961	31.10601
1451	5.84260	3.0824251	135.9706	135.1791	7.126918	31.10602
1452	5.84305	3.0824127	135.7242	134.9342	7.126861	31.10558
1453	5.84341	3.0824556	135.4776	134.6892	7.126788	31.10585
1454	5.84427	3.0825046	135.2434	134.4564	7.126648	31.10572
1455	5.84518	3.0825290	135.0000	134.2145	7.126513	31.10527
1456	5.84599	3.0825473	134.7596	133.9755	7.126396	31.10484
1457	5.84720	3.0825902	134.5163	133.7337	7.126213	31.10432
1458	5.84826	3.0826085	134.2788	133.4977	7.126063	31.10366
1459	5.84907	3.0825900	134.0354	133.2558	7.125964	31.10282
1460	5.84973	3.0826206	133.7888	133.0107	7.125859	31.10267
1461	5.85038	3.0826389	133.5483	132.7717	7.125761	31.10239
1462	5.85094	3.0826756	133.3053	132.5302	7.125665	31.10240
1463	5.85170	3.0826756	133.0646	132.2910	7.125563	31.10181
1464	5.85220	3.0826694	132.8304	132.0582	7.125497	31.10139
1465	5.85296	3.0827367	132.5899	131.8191	7.125360	31.10156
1466	5.85402	3.0827612	132.3528	131.5836	7.125207	31.10097
1467	5.85483	3.0827611	132.1152	131.3474	7.125098	31.10033
1468	5.85569	3.0828224	131.8657	131.0994	7.124951	31.10034
1469	5.85645	3.0828529	131.6315	130.8666	7.124834	31.10010
1470	5.85736	3.0828835	131.3789	130.6156	7.124696	31.09972
1471	5.85832	3.0828834	131.1355	130.3737	7.124569	31.09895
1472	5.85913	3.0829079	130.8676	130.1075	7.124447	31.09860
1473	5.85973	3.0828833	130.6090	129.8504	7.124377	31.09789
1474	5.86044	3.0829445	130.3626	129.6056	7.124249	31.09804
1475	5.86105	3.0829077	130.1251	129.3695	7.124186	31.09718
1476	5.86145	3.0829076	129.8850	129.1309	7.124129	31.09692
1477	5.86171	3.0829443	129.6384	128.8857	7.124072	31.09722
1478	5.86201	3.0829688	129.3949	128.6437	7.124016	31.09732
1479	5.86272	3.0829748	129.1516	128.4019	7.123917	31.09686
1480	5.86338	3.0829993	128.9049	128.1567	7.123815	31.09664
1481	5.86388	3.0829992	128.6644	127.9177	7.123745	31.09629
1482	5.86444	3.0831034	128.4364	127.6910	7.123615	31.09704
1483	5.86575	3.0831462	128.1899	127.4461	7.123420	31.09643
1484	5.86727	3.0831952	127.9342	127.1920	7.123196	31.09570
1485	5.86879	3.0832626	127.6940	126.9533	7.122962	31.09517
1486	5.87000	3.0832318	127.4503	126.7110	7.122818	31.09383
1487	5.87091	3.0832256	127.2133	126.4754	7.122700	31.09303
1488	5.87147	3.0832317	126.9577	126.2214	7.122620	31.09271
1489	5.87187	3.0832254	126.7231	125.9883	7.122567	31.09238
1490	5.87207	3.0831702	126.4828	125.7494	7.122565	31.09169
1491	5.87207	3.0832008	126.2393	125.5074	7.122543	31.09214
1492	5.87233	3.0831946	125.9959	125.2655	7.122509	31.09196
1493	5.87238	3.0831700	125.7434	125.0145	7.122510	31.09175
1494	5.87253	3.0832005	125.5029	124.7755	7.122469	31.09207
1495	5.87253	3.0831330	125.2595	124.5336	7.122499	31.09143
1496	5.87222	3.0831145	125.0219	124.2974	7.122542	31.09161
1497	5.87202	3.0831329	124.7789	124.0559	7.122553	31.09212
1498	5.87207	3.0831144	124.5352	123.8137	7.122551	31.09198
1499	5.87207	3.0830837	124.2919	123.5719	7.122562	31.09175
1500	5.87233	3.0831327	124.0515	123.3330	7.122499	31.09218
1501	5.87243	3.0831142	123.8202	123.1031	7.122491	31.09198
1502	5.87268	3.0831939	123.6012	122.8854	7.122412	31.09274
1503	5.87349	3.0833164	123.3698	122.6554	7.122240	31.09348
1504	5.87536	3.0834942	123.1447	122.4317	7.121904	31.09384
1505	5.87875	3.0837762	122.9133	122.2017	7.121321	31.09399
1506	5.88355	3.0839601	122.6822	121.9719	7.120608	31.09173
1507	5.88871	3.0840459	122.4598	121.7509	7.119902	31.08805
1508	5.89261	3.0841500	122.2257	121.5182	7.119346	31.08574
1509	5.89549	3.0841684	122.0066	121.3005	7.118965	31.08340
1510	5.89782	3.0842112	121.7724	121.0677	7.118641	31.08185
1511	5.89969	3.0843093	121.5472	120.8438	7.118347	31.08133
1512	5.90162	3.0843398	121.3188	120.6168	7.118081	31.08001
1513	5.90329	3.0844256	121.0907	120.3901	7.117819	31.07954
1514	5.90475	3.0844255	120.8472	120.1481	7.117627	31.07831
1515	5.90561	3.0844009	120.5947	119.8972	7.117524	31.07736
1516	5.90617	3.0844561	120.3512	119.6551	7.117420	31.07758
1517	5.90698	3.0845173	120.1260	119.4313	7.117280	31.07762
1518	5.90809	3.0845786	119.9067	119.2133	7.117102	31.07739
1519	5.90981	3.0846644	119.6787	118.9867	7.116833	31.07687
1520	5.91194	3.0847502	119.4474	118.7569	7.116513	31.07598
1521	5.91371	3.0848298	119.2191	118.5299	7.116241	31.07535
1522	5.91548	3.0849524	118.9970	118.3092	7.115947	31.07520
1523	5.91781	3.0850443	118.7688	118.0824	7.115598	31.07419
1524	5.92014	3.0850995	118.5407	117.8556	7.115268	31.07277
1525	5.92222	3.0852159	118.3154	117.6317	7.114939	31.07227
1526	5.92500	3.0854796	118.0902	117.4079	7.114443	31.07276
1527	5.92936	3.0858353	117.8591	117.1782	7.113699	31.07283
1528	5.93559	3.0860990	117.6339	116.9543	7.112766	31.07016
1529	5.94207	3.0861848	117.4117	116.7335	7.111892	31.06528
1530	5.94724	3.0862705	117.1773	116.5005	7.111186	31.06160
1531	5.95093	3.0863747	116.9552	116.2797	7.110657	31.05947
1532	5.95377	3.0864176	116.7239	116.0499	7.110269	31.05746
1533	5.95610	3.0865034	116.4987	115.8260	7.109923	31.05638
1534	5.95828	3.0865585	116.2735	115.6022	7.109613	31.05510
1535	5.96016	3.0866259	116.0391	115.3692	7.109335	31.05425
1536	5.96183	3.0866504	115.8169	115.1484	7.109105	31.05309
1537	5.96299	3.0866503	115.5886	114.9214	7.108952	31.05213
1538	5.96401	3.0866809	115.3605	114.6947	7.108802	31.05164
1539	5.96487	3.0867422	115.1323	114.4679	7.108656	31.05164
1540	5.96578	3.0867667	114.9011	114.2381	7.108522	31.05119
1541	5.96669	3.0868279	114.6731	114.0114	7.108370	31.05114
1542	5.96796	3.0869260	114.4414	113.7812	7.108153	31.05118
1543	5.96984	3.0872389	114.2255	113.5666	7.107748	31.05304
1544	5.97420	3.0876499	113.9941	113.3365	7.106977	31.05373
1545	5.98114	3.0879811	113.7719	113.1157	7.105919	31.05115
1546	5.98895	3.0882019	113.5438	112.8889	7.104808	31.04656
1547	5.99630	3.0885086	113.3157	112.6623	7.103711	31.04335
1548	6.00335	3.0887049	113.0904	112.4383	7.102710	31.03918
1549	6.00970	3.0889686	112.8652	112.2145	7.101765	31.03641
1550	6.01579	3.0891526	112.6429	111.9935	7.100893	31.03299
1551	6.02162	3.0894348	112.4117	111.7637	7.100002	31.03089
1552	6.02756	3.0896127	112.1865	111.5399	7.099152	31.02754
1553	6.03284	3.0896801	111.9645	111.3192	7.098443	31.02356
1554	6.03705	3.0897843	111.7300	111.0861	7.097850	31.02098
1555	6.04020	3.0899008	111.5049	110.8623	7.097387	31.01950
1556	6.04309	3.0900481	111.2737	110.6326	7.096939	31.01860
1557	6.04644	3.0904347	111.0455	110.4057	7.096310	31.01993
1558	6.05244	3.0908274	110.8234	110.1850	7.095344	31.01892
1559	6.05975	3.0909869	110.5888	109.9518	7.094330	31.01411
1560	6.06625	3.0911341	110.3609	109.7252	7.093426	31.00991
1561	6.07123	3.0911340	110.1264	109.4922	7.092790	31.00547
1562	6.07433	3.0912259	109.9073	109.2744	7.092346	31.00376
1563	6.07631	3.0909864	109.6669	109.0355	7.092213	30.99941
1564	6.07814	3.0912933	109.4417	108.8116	7.091819	31.00124
1565	6.07962	3.0913730	109.2166	108.5879	7.091586	31.00089
1566	6.08104	3.0914159	108.9881	108.3608	7.091379	31.00017
1567	6.08236	3.0914895	108.7662	108.1402	7.091169	30.99988
1568	6.08419	3.0916613	108.5348	107.9101	7.090844	31.00023
1569	6.08653	3.0917226	108.3097	107.6864	7.090512	30.99888
1570	6.08907	3.0917839	108.0816	107.4597	7.090154	30.99734
1571	6.09090	3.0918391	107.8594	107.2388	7.089889	30.99639
1572	6.09293	3.0920048	107.6219	107.0028	7.089542	30.99648
1573	6.09537	3.0921029	107.3995	106.7817	7.089178	30.99544
1574	6.09797	3.0921642	107.1714	106.5550	7.088813	30.99386
1575	6.10025	3.0921580	106.9433	106.3282	7.088522	30.99181
1576	6.10142	3.0921334	106.7121	106.0985	7.088382	30.99058
1577	6.10219	3.0922499	106.4869	105.8746	7.088221	30.99128
1578	6.10325	3.0922499	106.2677	105.6567	7.088081	30.99040
1579	6.10534	3.0924524	106.0335	105.4239	7.087708	30.99086
1580	6.10763	3.0925260	105.8082	105.2000	7.087376	30.98969
1581	6.10981	3.0925750	105.5739	104.9670	7.087070	30.98835
1582	6.11170	3.0926302	105.3486	104.7431	7.086798	30.98735
1583	6.11327	3.0926240	105.1296	104.5254	7.086597	30.98594
1584	6.11460	3.0926607	104.9015	104.2987	7.086406	30.98525
1585	6.11551	3.0927773	104.6760	104.0745	7.086226	30.98581
1586	6.11709	3.0928386	104.4418	103.8417	7.085990	30.98516
1587	6.11892	3.0928938	104.2194	103.6207	7.085726	30.98420
1588	6.12065	3.0928998	103.9823	103.3850	7.085499	30.98280
1589	6.12202	3.0929857	103.7602	103.1642	7.085276	30.98260
1590	6.12375	3.0931576	103.5349	102.9403	7.084965	30.98304
1591	6.12635	3.0932435	103.3096	102.7163	7.084588	30.98173
1592	6.12899	3.0933048	103.0754	102.4835	7.084217	30.98010
1593	6.13108	3.0933661	102.8561	102.2656	7.083917	30.97898
1594	6.13291	3.0933660	102.6310	102.0418	7.083681	30.97741
1595	6.13418	3.0934212	102.3999	101.8120	7.083487	30.97697
1596	6.13545	3.0934211	102.1807	101.5942	7.083321	30.97591
1597	6.13657	3.0934886	101.9494	101.3643	7.083140	30.97575
1598	6.13769	3.0935683	101.7241	101.1403	7.082953	30.97571
1599	6.13876	3.0935498	101.4961	100.9137	7.082823	30.97464
1600	6.13978	3.0938015	101.2707	100.6897	7.082560	30.97661
1601	6.14329	3.0942743	101.0394	100.4598	7.081869	30.97875
1602	6.15026	3.0946365	100.8173	100.2390	7.080798	30.97651
1603	6.15816	3.0948022	100.5921	100.0151	7.079712	30.97125
1604	6.16498	3.0949801	100.3606	99.7850	7.078755	30.96711
1605	6.17043	3.0951029	100.1265	99.5523	7.077999	30.96362
1606	6.17491	3.0951826	99.8920	99.3192	7.077388	30.96053
1607	6.17863	3.0952439	99.6760	99.1045	7.076882	30.95792
1608	6.18143	3.0953789	99.4445	98.8744	7.076455	30.95697
1609	6.18438	3.0954464	99.2193	98.6505	7.076043	30.95513
1610	6.18729	3.0955384	98.9883	98.4209	7.075624	30.95361
1611	6.19014	3.0956551	98.7601	98.1940	7.075200	30.95241
1612	6.19340	3.0957409	98.5319	97.9672	7.074740	30.95050
1613	6.19646	3.0958576	98.3126	97.7492	7.074290	30.94911
1614	6.19886	3.0958759	98.0782	97.5162	7.073974	30.94724
1615	6.20095	3.0959802	97.8532	97.2926	7.073652	30.94660
1616	6.20278	3.0960293	97.6279	97.0686	7.073391	30.94557
1617	6.20451	3.0960661	97.4088	96.8508	7.073149	30.94451
1618	6.20609	3.0960660	97.1835	96.6269	7.072945	30.94317
1619	6.20706	3.0960905	96.9554	96.4001	7.072805	30.94267
1620	6.20788	3.0962132	96.7211	96.1672	7.072635	30.94339
1621	6.20971	3.0964466	96.4928	95.9403	7.072279	30.94441
1622	6.21282	3.0965571	96.2706	95.7194	7.071826	30.94290
1623	6.21649	3.0967105	96.0453	95.4955	7.071280	30.94136
1624	6.22062	3.0968886	95.8233	95.2748	7.070664	30.93968
1625	6.22480	3.0971465	95.5918	95.0446	7.070001	30.93883
1626	6.23001	3.0975334	95.3665	94.8207	7.069143	30.93848
1627	6.23791	3.0978896	95.1415	94.5970	7.067961	30.93534
1628	6.24633	3.0980799	94.9071	94.3640	7.066799	30.92990
1629	6.25383	3.0983010	94.6850	94.1432	7.065738	30.92562
1630	6.26062	3.0985651	94.4537	93.9133	7.064744	30.92248
1631	6.26731	3.0988537	94.2254	93.6864	7.063751	30.91970
1632	6.27430	3.0991547	93.9969	93.4593	7.062713	30.91678
1633	6.28160	3.0994126	93.7690	93.2327	7.061658	30.91310
1634	6.28921	3.0996829	93.5438	93.0088	7.060559	30.90928
1635	6.29677	3.0999470	93.3125	92.7789	7.059470	30.90544
1636	6.30408	3.1005000	93.0840	92.5517	7.058266	30.90502
1637	6.31404	3.1009177	92.8619	92.3310	7.056797	30.90069
1638	6.32580	3.1013294	92.6399	92.1103	7.055106	30.89467
1639	6.33658	3.1015259	92.4117	91.8834	7.053647	30.88717
1640	6.34558	3.1019191	92.1802	91.6534	7.052313	30.88345
1641	6.35499	3.1027734	91.9552	91.4297	7.050695	30.88444
1642	6.36876	3.1036094	91.7239	91.1997	7.048540	30.88128
1643	6.38580	3.1041871	91.4985	90.9756	7.046107	30.87232
1644	6.40157	3.1044513	91.2703	90.7489	7.043992	30.86106
1645	6.41386	3.1048508	91.0480	90.5279	7.042246	30.85444
1646	6.42375	3.1051027	90.8229	90.3041	7.040876	30.84838
1647	6.43190	3.1056929	90.6008	90.0833	7.039553	30.84761
1648	6.44066	3.1060679	90.3724	89.8563	7.038263	30.84391
1649	6.44912	3.1063384	90.1381	89.6233	7.037063	30.83935
1650	6.45722	3.1069594	89.8825	89.3692	7.035732	30.83897
1651	6.46753	3.1075928	89.6390	89.1272	7.034119	30.83673
1652	6.47902	3.1077280	89.4198	88.9093	7.032610	30.82795
1653	6.48826	3.1082876	89.1979	88.6887	7.031169	30.82586
1654	6.49796	3.1085581	88.9726	88.4647	7.029817	30.82018
1655	6.50622	3.1086995	88.7413	88.2348	7.028709	30.81439
1656	6.51223	3.1089085	88.5160	88.0109	7.027849	30.81137
1657	6.51706	3.1089945	88.2908	87.7870	7.027199	30.80806
1658	6.52040	3.1090560	88.0596	87.5571	7.026746	30.80583
1659	6.52296	3.1091174	87.8405	87.3394	7.026390	30.80429
1660	6.52481	3.1090866	87.6152	87.1153	7.026170	30.80239
1661	6.52584	3.1091788	87.3838	86.8854	7.025991	30.80258
1662	6.52666	3.1092033	87.1557	86.6586	7.025871	30.80222
1663	6.52753	3.1092894	86.9304	86.4346	7.025715	30.80248
1664	6.52902	3.1094615	86.6990	86.2046	7.025438	30.80313
1665	6.53134	3.1095845	86.4769	85.9838	7.025083	30.80249
1666	6.53416	3.1097075	86.2517	85.7599	7.024664	30.80140
1667	6.53776	3.1100212	86.0325	85.5420	7.024053	30.80170
1668	6.54295	3.1104702	85.8073	85.3182	7.023176	30.80205
1669	6.55040	3.1106793	85.5760	85.0883	7.022137	30.79773
1670	6.55723	3.1108330	85.3540	84.8675	7.021203	30.79336
1671	6.56238	3.1109744	85.1255	84.6404	7.020487	30.79039
1672	6.56644	3.1110913	84.9002	84.4165	7.019918	30.78812
1673	6.57024	3.1113312	84.6812	84.1987	7.019319	30.78742
1674	6.57461	3.1116572	84.4470	83.9659	7.018606	30.78716
1675	6.58006	3.1122172	84.2248	83.7450	7.017642	30.78849
1676	6.58999	3.1131403	83.9935	83.5151	7.015940	30.78977
1677	6.60646	3.1143466	83.7651	83.2880	7.013283	30.78826
1678	6.62957	3.1155900	83.5370	83.0613	7.009783	30.78118
1679	6.65749	3.1168889	83.3147	82.8403	7.005661	30.77039
1680	6.68692	3.1179540	83.0835	82.6104	7.001472	30.75571
1681	6.71565	3.1195305	82.8612	82.3894	6.997120	30.74725
1682	6.74652	3.1202386	82.6299	82.1595	6.992939	30.72742
1683	6.77260	3.1212056	82.3987	81.9296	6.989225	30.71471
1684	6.79509	3.1216612	82.1763	81.7086	6.986213	30.69966
1685	6.81355	3.1221663	81.9543	81.4879	6.983676	30.68876
1686	6.82819	3.1225543	81.7199	81.2549	6.981670	30.68001
1687	6.83921	3.1230533	81.5007	81.0370	6.980057	30.67570
1688	6.84878	3.1235338	81.2754	80.8130	6.978633	30.67248
1689	6.85759	3.1239158	81.0504	80.5893	6.977353	30.66887
1690	6.86535	3.1239958	80.8250	80.3652	6.976350	30.66292
1691	6.87095	3.1242730	80.5970	80.1386	6.975519	30.66104
1692	6.87561	3.1244517	80.3685	79.9114	6.974851	30.65893
1693	6.87980	3.1251358	80.1462	79.6905	6.973992	30.66272
1694	6.88628	3.1255610	79.9088	79.4544	6.972979	30.66167
1695	6.89379	3.1258198	79.6747	79.2217	6.971921	30.65788
1696	6.90012	3.1257272	79.4464	78.9948	6.971182	30.65135
1697	6.90364	3.1256593	79.2151	78.7648	6.970776	30.64757
1698	6.90499	3.1260537	78.9900	78.5410	6.970411	30.65075
1699	6.90800	3.1262633	78.7618	78.3141	6.969933	30.65045
1700	6.91131	3.1265899	78.5334	78.0871	6.969359	30.65114
1701	6.91572	3.1274160	78.3050	77.8601	6.968406	30.65628
1702	6.92210	3.1277797	78.0859	77.6423	6.967437	30.65464
1703	6.92843	3.1281373	77.8548	77.4125	6.966478	30.65299
1704	6.93439	3.1285441	77.6354	77.1944	6.965539	30.65218
1705	6.94103	3.1295061	77.3983	76.9587	6.964245	30.65680
1706	6.95193	3.1309308	77.1728	76.7345	6.962202	30.66264
1707	6.96874	3.1323619	76.9539	76.5168	6.959428	30.66327
1708	6.98926	3.1339782	76.7287	76.2930	6.956113	30.66261
1709	7.01290	3.1352554	76.5002	76.0658	6.952581	30.65551
1710	7.03572	3.1358477	76.2749	75.8419	6.949488	30.64172
1711	7.05408	3.1368351	76.0469	75.6152	6.946751	30.63619
1712	7.07203	3.1385759	75.8246	75.3942	6.943699	30.63915
1713	7.09551	3.1402367	75.5962	75.1671	6.940012	30.63634
1714	7.12271	3.1416383	75.3680	74.9403	6.936001	30.62744
1715	7.15054	3.1436457	75.1399	74.7135	6.931621	30.62450
1716	7.18174	3.1453569	74.9142	74.4891	6.926981	30.61540
1717	7.21452	3.1463329	74.6863	74.2625	6.922506	30.59698
1718	7.24206	3.1469630	74.4550	74.0326	6.918843	30.57951
1719	7.26239	3.1472037	74.2298	73.8088	6.916247	30.56424
1720	7.27610	3.1474755	74.0078	73.5880	6.914444	30.55516
1721	7.28546	3.1478215	73.7854	73.3669	6.913134	30.55071
1722	7.29273	3.1481304	73.5480	73.1309	6.912096	30.54772
1723	7.29948	3.1483096	73.3257	72.9099	6.911184	30.54378
1724	7.30430	3.1483713	73.1034	72.6889	6.910565	30.54030
1725	7.30775	3.1485195	72.8723	72.4592	6.910069	30.53895
1726	7.31042	3.1485503	72.6441	72.2323	6.909725	30.53702
1727	7.31220	3.1485503	72.4158	72.0054	6.909504	30.53555
1728	7.31315	3.1485811	72.2057	71.7965	6.909370	30.53515
1729	7.31383	3.1486119	72.0139	71.6058	6.909269	30.53496
1730	7.31456	3.1487355	71.8495	71.4424	6.909117	30.53572
1731	7.31576	3.1487293	71.6698	71.2637	6.908970	30.53467
1732	7.31707	3.1487910	71.4936	71.0885	6.908778	30.53426
1733	7.31791	3.1486982	71.3169	70.9128	6.908717	30.53260
1734	7.31801	3.1487353	71.1160	70.7132	6.908683	30.53299
1735	7.31801	3.1489392	70.9001	70.4985	6.908581	30.53528
1736	7.31995	3.1491184	70.6808	70.2805	6.908255	30.53559
1737	7.32325	3.1492110	70.4558	70.0568	6.907805	30.53378
1738	7.32645	3.1492975	70.2395	69.8417	6.907371	30.53198
1739	7.32896	3.1494025	70.0173	69.6209	6.907011	30.53099
1740	7.33095	3.1494766	69.7922	69.3971	6.906729	30.53014
1741	7.33305	3.1496867	69.5487	69.1550	6.906369	30.53065
1742	7.33629	3.1497794	69.3145	68.9221	6.905926	30.52889
1743	7.33912	3.1495567	69.0979	68.7068	6.905684	30.52410
1744	7.34059	3.1503171	68.8730	68.4832	6.905137	30.53106
1745	7.34614	3.1510652	68.6446	68.2561	6.904100	30.53429
1746	7.35489	3.1513990	68.4287	68.0415	6.902873	30.53026
1747	7.36317	3.1514236	68.2031	67.8172	6.901852	30.52333
1748	7.36962	3.1512379	67.9811	67.5965	6.901154	30.51576
1749	7.37345	3.1511883	67.7527	67.3694	6.900709	30.51196
1750	7.37612	3.1512439	67.5245	67.1426	6.900354	30.51031
1751	7.37906	3.1513056	67.2931	66.9125	6.899964	30.50849
1752	7.38168	3.1514911	67.0771	66.6978	6.899552	30.50826
1753	7.38488	3.1518187	66.8488	66.4708	6.899003	30.50906
1754	7.38866	3.1519361	66.6234	66.2467	6.898485	30.50709
1755	7.39217	3.1520535	66.3952	66.0198	6.897998	30.50536
1756	7.39490	3.1521153	66.1700	65.7960	6.897633	30.50372
1757	7.39689	3.1521832	65.9418	65.5690	6.897355	30.50280
1758	7.39852	3.1521460	65.7135	65.3421	6.897171	30.50107
1759	7.39978	3.1520223	65.4883	65.1182	6.897073	30.49874
1760	7.40062	3.1519356	65.2660	64.8971	6.897008	30.49717
1761	7.40104	3.1520840	65.0376	64.6701	6.896882	30.49849
1762	7.40240	3.1521828	64.8093	64.4432	6.896665	30.49845
1763	7.40398	3.1525044	64.5843	64.2194	6.896316	30.50061
1764	7.40660	3.1529249	64.3559	63.9924	6.895793	30.50290
1765	7.41059	3.1529557	64.1277	63.7655	6.895290	30.49983
1766	7.41374	3.1526278	63.9084	63.5475	6.895061	30.49365
1767	7.41516	3.1526524	63.6802	63.3206	6.894873	30.49277
1768	7.41652	3.1528317	63.4489	63.0906	6.894617	30.49359
1769	7.41857	3.1528935	63.2296	62.8726	6.894336	30.49255
1770	7.42061	3.1530727	62.9985	62.6428	6.893997	30.49277
1771	7.42277	3.1531036	62.7824	62.4280	6.893718	30.49130
1772	7.42455	3.1532272	62.5540	62.2010	6.893438	30.49116
1773	7.42602	3.1532828	62.3256	61.9739	6.893229	30.49056
1774	7.42754	3.1534621	62.0943	61.7439	6.892954	30.49124
1775	7.42922	3.1536414	61.8662	61.5171	6.892661	30.49179
1776	7.43122	3.1538331	61.6437	61.2959	6.892324	30.49218
1777	7.43327	3.1540619	61.4155	61.0690	6.891962	30.49293
1778	7.43584	3.1541546	61.1965	60.8512	6.891602	30.49176
1779	7.43789	3.1541235	60.9682	60.6243	6.891364	30.48973
1780	7.43925	3.1541544	60.7337	60.3912	6.891180	30.48896
1781	7.44004	3.1541481	60.5084	60.1672	6.891083	30.48830
1782	7.44057	3.1542161	60.2861	59.9462	6.890982	30.48867
1783	7.44172	3.1543645	60.0581	59.7194	6.890767	30.48934
1784	7.44335	3.1545438	59.8327	59.4954	6.890480	30.48993
1785	7.44529	3.1546551	59.6076	59.2716	6.890188	30.48951
1786	7.44734	3.1549334	59.3730	59.0384	6.889803	30.49079
1787	7.45013	3.1551436	59.1448	58.8114	6.889361	30.49069
1788	7.45265	3.1551435	58.9164	58.5843	6.889051	30.48858
1789	7.45475	3.1553847	58.6852	58.3545	6.888678	30.48942
1790	7.45711	3.1554156	58.4569	58.1275	6.888373	30.48777
1791	7.45874	3.1555021	58.2317	57.9036	6.888130	30.48736
1792	7.46016	3.1555020	58.0064	57.6796	6.887954	30.48622
1793	7.46126	3.1555329	57.7780	57.4525	6.887801	30.48568
1794	7.46195	3.1555019	57.5497	57.2255	6.887729	30.48485
1795	7.46295	3.1556689	57.3213	56.9985	6.887524	30.48586
1796	7.46442	3.1556255	57.0933	56.7718	6.887362	30.48420
1797	7.46584	3.1556563	56.8681	56.5479	6.887172	30.48339
1798	7.46715	3.1556562	56.6335	56.3146	6.887008	30.48233
1799	7.46841	3.1556561	56.4174	56.0998	6.886851	30.48132
1800	7.46962	3.1556066	56.1801	55.8639	6.886724	30.47984
1801	7.47104	3.1556560	55.9609	55.6459	6.886525	30.47922
1802	7.47251	3.1558044	55.7236	55.4100	6.886272	30.47961
1803	7.47467	3.1560147	55.5013	55.1889	6.885907	30.48007
1804	7.47792	3.1562559	55.2729	54.9619	6.885393	30.47989
1805	7.48223	3.1565837	55.0445	54.7348	6.884712	30.47971
1806	7.48739	3.1567631	54.8225	54.5140	6.883999	30.47720
1807	7.49228	3.1569177	54.5972	54.2901	6.883331	30.47466
1808	7.49675	3.1571527	54.3658	54.0600	6.882674	30.47335
1809	7.50117	3.1573073	54.1437	53.8392	6.882063	30.47122
1810	7.50516	3.1574124	53.9062	53.6031	6.881525	30.46894
1811	7.50837	3.1574247	53.6808	53.3789	6.881127	30.46636
1812	7.51090	3.1575731	53.4620	53.1614	6.880748	30.46583
1813	7.51295	3.1575173	53.2273	52.9281	6.880522	30.46354
1814	7.51432	3.1575482	53.0051	52.7071	6.880338	30.46276
1815	7.51611	3.1576966	52.7740	52.4773	6.880047	30.46288
1816	7.51789	3.1577832	52.5516	52.2562	6.879785	30.46234
1817	7.52000	3.1579378	52.3200	52.0260	6.879453	30.46224
1818	7.52295	3.1580553	52.0979	51.8051	6.879037	30.46101
1819	7.52600	3.1583585	51.8728	51.5813	6.878521	30.46167
1820	7.52968	3.1585193	51.6447	51.3546	6.877995	30.46026
1821	7.53395	3.1585996	51.4100	51.1212	6.877438	30.45748
1822	7.53821	3.1587171	51.1908	50.9033	6.876863	30.45510
1823	7.54253	3.1588346	50.9627	50.6765	6.876282	30.45267
1824	7.54785	3.1590202	50.7283	50.4434	6.875548	30.45009
1825	7.55332	3.1589953	50.5031	50.2195	6.874895	30.44513
1826	7.55754	3.1590199	50.2747	49.9925	6.874371	30.44181
1827	7.56117	3.1588960	50.0435	49.7625	6.873987	30.43740
1828	7.56365	3.1587164	49.8244	49.5447	6.873769	30.43342
1829	7.56586	3.1585678	49.5898	49.3114	6.873568	30.43000
1830	7.56749	3.1582644	49.3613	49.0842	6.873511	30.42544
1831	7.56881	3.1579673	49.1271	48.8514	6.873488	30.42122
1832	7.57107	3.1578125	48.9016	48.6272	6.873284	30.41769
1833	7.57302	3.1575710	48.6734	48.4003	6.873159	30.41351
1834	7.57529	3.1572739	48.4452	48.1734	6.873022	30.40847
1835	7.57829	3.1569644	48.2231	47.9526	6.872802	30.40264
1836	7.58177	3.1564630	47.9854	47.7162	6.872615	30.39436
1837	7.58525	3.1556214	47.7542	47.4864	6.872589	30.38246
1838	7.58746	3.1548974	47.5320	47.2655	6.872661	30.37291
1839	7.58857	3.1544457	47.3098	47.0445	6.872737	30.36723
1840	7.58920	3.1541735	47.0754	46.8114	6.872784	30.36388
1841	7.58957	3.1536105	46.8503	46.5876	6.873002	30.35766
1842	7.59026	3.1529795	46.6309	46.3695	6.873214	30.35044
1843	7.59100	3.1528248	46.3935	46.1335	6.873193	30.34825
1844	7.59121	3.1524598	46.1683	45.9096	6.873336	30.34428
1845	7.59136	3.1519587	45.9399	45.6825	6.873550	30.33891
1846	7.59168	3.1517175	45.7085	45.4524	6.873621	30.33616
1847	7.59205	3.1515690	45.4803	45.2255	6.873642	30.33436
1848	7.59215	3.1512350	45.2643	45.0107	6.873783	30.33081
1849	7.59210	3.1510061	45.0387	44.7864	6.873894	30.32851
1850	7.59189	3.1508143	44.8045	44.5536	6.874005	30.32676
1851	7.59173	3.1506350	44.5761	44.3265	6.874105	30.32509
1852	7.59152	3.1504865	44.3448	44.0964	6.874196	30.32379
1853	7.59126	3.1503999	44.1257	43.8786	6.874264	30.32319
1854	7.59105	3.1502452	43.8883	43.6425	6.874358	30.32183
1855	7.59084	3.1501895	43.6751	43.4305	6.874406	30.32152
1856	7.59073	3.1500348	43.4316	43.1885	6.874487	30.32007
1857	7.59052	3.1499482	43.2063	42.9645	6.874549	30.31943
1858	7.59047	3.1498368	42.9841	42.7435	6.874604	30.31839
1859	7.59005	3.1497997	42.7557	42.5164	6.874668	30.31846
1860	7.58984	3.1497069	42.5275	42.2895	6.874733	30.31776
1861	7.58941	3.1496203	42.3020	42.0653	6.874821	30.31730
1862	7.58910	3.1494656	42.0676	41.8323	6.874927	30.31603
1863	7.58825	3.1493914	41.8395	41.6054	6.875060	30.31608
1864	7.58778	3.1492862	41.6113	41.3785	6.875162	30.31547
1865	7.58725	3.1492305	41.3769	41.1455	6.875248	30.31544
1866	7.58688	3.1491068	41.1485	40.9184	6.875347	30.31454
1867	7.58662	3.1490449	40.9202	40.6913	6.875403	30.31421
1868	7.58615	3.1489892	40.6978	40.4702	6.875482	30.31413
1869	7.58593	3.1489891	40.4665	40.2403	6.875503	30.31442
1870	7.58572	3.1489272	40.2411	40.0161	6.875554	30.31404
1871	7.58546	3.1488344	40.0161	39.7924	6.875625	30.31338
1872	7.58514	3.1487602	39.7906	39.5682	6.875694	30.31296
1873	7.58472	3.1487168	39.5561	39.3350	6.875761	30.31297
1874	7.58446	3.1486859	39.3187	39.0990	6.875803	30.31298
1875	7.58451	3.1486301	39.0509	38.8327	6.875818	30.31245
1876	7.58462	3.1486301	38.8198	38.6029	6.875800	30.31246
1877	7.58483	3.1485991	38.5946	38.3790	6.875785	30.31205
1878	7.58509	3.1486856	38.3599	38.1456	6.875708	30.31284
1879	7.58583	3.1485989	38.1345	37.9215	6.875655	30.31137
1880	7.58615	3.1486298	37.9094	37.6977	6.875598	30.31153
1881	7.58625	3.1485679	37.6720	37.4617	6.875610	30.31088
1882	7.58667	3.1486296	37.4435	37.2345	6.875526	30.31127
1883	7.58741	3.1486296	37.2122	37.0044	6.875432	30.31073
1884	7.58820	3.1486295	36.9899	36.7834	6.875332	30.31014
1885	7.58883	3.1485676	36.7616	36.5564	6.875281	30.30903
1886	7.58904	3.1484439	36.5365	36.3325	6.875309	30.30762
1887	7.58889	3.1483882	36.3144	36.1117	6.875351	30.30726
1888	7.58852	3.1483263	36.0767	35.8754	6.875420	30.30703
1889	7.58873	3.1482644	35.8515	35.6514	6.875419	30.30629
1890	7.58852	3.1482520	35.6263	35.4275	6.875446	30.30644
1891	7.58825	3.1481468	35.3889	35.1915	6.875523	30.30565
1892	7.58794	3.1480540	35.1665	34.9703	6.875601	30.30504
1893	7.58746	3.1479674	34.9352	34.7403	6.875695	30.30463
1894	7.58704	3.1479365	34.7097	34.5162	6.875756	30.30477
1895	7.58688	3.1478189	34.4847	34.2924	6.875826	30.30375
1896	7.58662	3.1477571	34.2532	34.0622	6.875883	30.30342
1897	7.58630	3.1476952	34.0218	33.8321	6.875946	30.30314
1898	7.58593	3.1476395	33.7904	33.6020	6.876012	30.30297
1899	7.58583	3.1475838	33.5713	33.3841	6.876047	30.30256
1900	7.58588	3.1475466	33.3429	33.1570	6.876054	30.30222
1901	7.58583	3.1474291	33.1085	32.9239	6.876111	30.30112
1902	7.58583	3.1473981	32.8802	32.6970	6.876121	30.30089
1903	7.58615	3.1473301	32.6458	32.4639	6.876111	30.29999
1904	7.58636	3.1472187	32.4207	32.2400	6.876134	30.29872
1905	7.58673	3.1471878	32.1922	32.0129	6.876099	30.29817
1906	7.58720	3.1470703	31.9638	31.7858	6.876093	30.29661
1907	7.58757	3.1469837	31.7357	31.5590	6.876085	30.29546
1908	7.58789	3.1468909	31.4951	31.3197	6.876086	30.29431
1909	7.58846	3.1468290	31.2759	31.1018	6.876041	30.29324
1910	7.58862	3.1467362	31.0475	30.8747	6.876062	30.29221
1911	7.58899	3.1467361	30.8161	30.6445	6.876013	30.29199
1912	7.58910	3.1466681	30.5878	30.4175	6.876028	30.29127
1913	7.58952	3.1466186	30.3657	30.1967	6.875996	30.29048
1914	7.58957	3.1466185	30.1342	29.9665	6.875985	30.29053
1915	7.58978	3.1466184	29.8999	29.7335	6.875955	30.29045
1916	7.59005	3.1465442	29.6744	29.5093	6.875954	30.28953
1917	7.59052	3.1465008	29.4430	29.2792	6.875912	30.28876
1918	7.59094	3.1464390	29.2120	29.0494	6.875886	30.28783
1919	7.59163	3.1464389	28.9837	28.8225	6.875799	30.28733
1920	7.59215	3.1464079	28.7521	28.5922	6.875746	30.28665
1921	7.59284	3.1463522	28.5085	28.3500	6.875684	30.28556
1922	7.59316	3.1462903	28.2833	28.1260	6.875671	30.28473
1923	7.59374	3.1462594	28.0458	27.8898	6.875611	30.28400
1924	7.59400	3.1461666	27.8235	27.6688	6.875619	30.28288
1925	7.59458	3.1460985	27.5982	27.4447	6.875577	30.28175
1926	7.59469	3.1460799	27.3578	27.2057	6.875568	30.28156
1927	7.59505	3.1459871	27.1294	26.9786	6.875563	30.28035
1928	7.59532	3.1458697	26.8981	26.7486	6.875582	30.27897
1929	7.59532	3.1458449	26.6699	26.5217	6.875589	30.27881
1930	7.59553	3.1457459	26.4384	26.2915	6.875606	30.27768
1931	7.59558	3.1455419	26.2069	26.0612	6.875692	30.27556
1932	7.59542	3.1452081	25.9788	25.8344	6.875865	30.27224
1933	7.59463	3.1444913	25.7503	25.6072	6.876295	30.26540
1934	7.59305	3.1436324	25.5191	25.3773	6.876888	30.25773
1935	7.59068	3.1428169	25.2847	25.1443	6.877556	30.25121
1936	7.58820	3.1422794	25.0561	24.9169	6.878105	30.24775
1937	7.58678	3.1414084	24.8249	24.6871	6.878685	30.23981
1938	7.58651	3.1405128	24.5996	24.4630	6.879137	30.23060
1939	7.58704	3.1393517	24.3712	24.2359	6.879618	30.21788
1940	7.58673	3.1383637	24.1401	24.0060	6.880120	30.20774
1941	7.58467	3.1371103	23.9085	23.7758	6.880958	30.19628
1942	7.58066	3.1352462	23.6803	23.5489	6.882321	30.18001
1943	7.57466	3.1326975	23.4549	23.3247	6.884252	30.15818
1944	7.56449	3.1302237	23.2142	23.0854	6.886652	30.14076
1945	7.55074	3.1277568	22.9891	22.8615	6.889486	30.12650
1946	7.53521	3.1258517	22.7577	22.6314	6.892271	30.11976
1947	7.51942	3.1241936	22.5293	22.4043	6.894973	30.11588
1948	7.50448	3.1221106	22.3010	22.1773	6.897776	30.10672
1949	7.48970	3.1213405	22.0696	21.9472	6.899936	30.11142
1950	7.47740	3.1200097	21.8383	21.7172	6.902062	30.10799
1951	7.46657	3.1191473	21.6127	21.4928	6.903788	30.10827
1952	7.45759	3.1188024	21.3725	21.2540	6.905042	30.11249
1953	7.45154	3.1183158	21.1472	21.0299	6.906006	30.11264
1954	7.44676	3.1176937	20.9221	20.8061	6.906881	30.11024
1955	7.44256	3.1174289	20.6875	20.5729	6.907515	30.11116
1956	7.43962	3.1172687	20.4560	20.3426	6.907946	30.11210
1957	7.43778	3.1171024	20.2248	20.1127	6.908245	30.11202
1958	7.43636	3.1168067	19.9933	19.8825	6.908555	30.11020
1959	7.43600	3.1163941	19.7619	19.6524	6.908792	30.10621
1960	7.43563	3.1160369	19.5336	19.4254	6.909003	30.10281
1961	7.43558	3.1156797	19.3052	19.1982	6.909175	30.09914
1962	7.43547	3.1153040	19.0740	18.9683	6.909363	30.09532
1963	7.43531	3.1147621	18.8486	18.7442	6.909637	30.08977
1964	7.43484	3.1145281	18.6173	18.5142	6.909802	30.08778
1965	7.43447	3.1141402	18.3889	18.2870	6.910027	30.08405
1966	7.43416	3.1135861	18.1454	18.0449	6.910326	30.07852
1967	7.43411	3.1128966	17.9079	17.8088	6.910657	30.07130
1968	7.43453	3.1125149	17.6734	17.5756	6.910783	30.06696
1969	7.43516	3.1116163	17.4391	17.3426	6.911131	30.05692
1970	7.43742	3.1117454	17.2076	17.1124	6.910789	30.05644
1971	7.43962	3.1115668	16.9733	16.8794	6.910601	30.05273
1972	7.44141	3.1112406	16.7479	16.6552	6.910534	30.04780
1973	7.44309	3.1110620	16.5164	16.4250	6.910410	30.04453
1974	7.44514	3.1109450	16.2791	16.1890	6.910211	30.04161
1975	7.44713	3.1105880	16.0568	15.9680	6.910133	30.03617
1976	7.44887	3.1097942	15.8284	15.7408	6.910296	30.02630
1977	7.44981	3.1089081	15.5941	15.5078	6.910599	30.01612
1978	7.44981	3.1083728	15.3628	15.2778	6.910850	30.01051
1979	7.44923	3.1079914	15.1345	15.0508	6.911098	30.00703
1980	7.44876	3.1069579	14.9091	14.8266	6.911645	29.99651
1981	7.44802	3.1063489	14.6778	14.5966	6.912021	29.99075
1982	7.44766	3.1060106	14.4494	14.3695	6.912223	29.98755
1983	7.44802	3.1055985	14.2270	14.1484	6.912370	29.98293
1984	7.44844	3.1047867	13.9957	13.9184	6.912702	29.97400
1985	7.44887	3.1043008	13.7583	13.6823	6.912878	29.96856
1986	7.44892	3.1035076	13.5329	13.4581	6.913246	29.96014
1987	7.44897	3.1031387	13.3016	13.2281	6.913411	29.95626
1988	7.44897	3.1026775	13.0701	12.9979	6.913627	29.95144
1989	7.44881	3.1021795	12.8327	12.7618	6.913879	29.94637
1990	7.44850	3.1018659	12.6013	12.5316	6.914063	29.94339
1991	7.44818	3.1017368	12.3699	12.3015	6.914159	29.94239
1992	7.44797	3.1012634	12.1505	12.0834	6.914406	29.93761
1993	7.44808	3.1003414	11.9225	11.8566	6.914829	29.92778
1994	7.44902	3.0999972	11.7031	11.6385	6.914874	29.92339
1995	7.45118	3.0995854	11.4686	11.4053	6.914802	29.91724
1996	7.45454	3.0990015	11.2404	11.1784	6.914665	29.90821
1997	7.45948	3.0974653	11.0030	10.9422	6.914789	29.88767
1998	7.46678	3.0955547	10.7777	10.7182	6.914803	29.86110
1999	7.47388	3.0925823	10.5432	10.4850	6.915347	29.82341
2000	7.47955	3.0902432	10.3088	10.2519	6.915763	29.79370
2001	7.48397	3.0887455	10.0834	10.0278	6.915932	29.77405
2002	7.48744	3.0875917	9.8551	9.8007	6.916052	29.75888
2003	7.48933	3.0870455	9.6268	9.5737	6.916076	29.75154
2004	7.48991	3.0855852	9.3955	9.3437	6.916696	29.73559
2005	7.49023	3.0845852	9.1580	9.1075	6.917130	29.72477
2006	7.49054	3.0841742	8.9357	8.8864	6.917283	29.72021
2007	7.49049	3.0832664	8.7072	8.6592	6.917717	29.71069
2008	7.48965	3.0825917	8.4761	8.4293	6.918138	29.70432
2009	7.48844	3.0820704	8.2416	8.1961	6.918530	29.69991
2010	7.48670	3.0814449	8.0163	7.9721	6.919037	29.69483
2011	7.48465	3.0810464	7.7818	7.7389	6.919474	29.69244
2012	7.48281	3.0805190	7.5505	7.5089	6.919946	29.68849
2013	7.48092	3.0797281	7.3129	7.2726	6.920551	29.68179
2014	7.47992	3.0769515	7.0877	7.0487	6.921994	29.65316
2015	7.48150	3.0729078	6.8562	6.8184	6.923724	29.60885
2016	7.48528	3.0692273	6.6279	6.5914	6.925010	29.56653
2017	7.48939	3.0668215	6.3936	6.3584	6.925648	29.53753
2018	7.49233	3.0637311	6.1620	6.1281	6.926754	29.50224
2019	7.49449	3.0612657	5.9336	5.9010	6.927660	29.47428
2020	7.49596	3.0592597	5.6991	5.6677	6.928430	29.45179
2021	7.49659	3.0565634	5.4708	5.4407	6.929633	29.42267
2022	7.49701	3.0539841	5.2395	5.2107	6.930807	29.39498
2023	7.49727	3.0526215	5.0173	4.9897	6.931420	29.38036
2024	7.49748	3.0502572	4.7829	4.7565	6.932516	29.35514
2025	7.49769	3.0481135	4.5515	4.5264	6.933508	29.33227
2026	7.49790	3.0448593	4.3232	4.2994	6.935029	29.29760
2027	7.49827	3.0419970	4.0888	4.0663	6.936344	29.26696
2028	7.49864	3.0388673	3.8605	3.8393	6.937787	29.23349
2029	7.49896	3.0354035	3.6259	3.6060	6.939395	29.19651
2030	7.49938	3.0224155	3.4006	3.3818	6.945533	29.05830
2031	7.49906	3.0128645	3.1630	3.1456	6.950125	28.95726
2032	7.49801	3.0045335	2.9408	2.9246	6.954227	28.86982
2033	7.49638	2.9965023	2.7005	2.6856	6.958259	28.78608
2034	7.49433	2.9843890	2.4688	2.4553	6.964295	28.65942
2035	7.49149	2.9656250	2.2405	2.2282	6.973610	28.46301
2036	7.48744	2.9473515	2.0063	1.9953	6.982850	28.27292
2037	7.48287	2.9103973	1.7748	1.7650	7.001102	27.88588
2038	7.47808	2.8869786	1.5526	1.5441	7.012919	27.64244
2039	7.47309	2.8805251	1.3361	1.3288	7.016645	27.57838
2040	7.46746	2.8620914	1.1263	1.1201	7.026198	27.38841
2041	7.45895	2.8589071	0.8889	0.8840	7.028814	27.36162
2042	7.44939	2.8335041	0.6726	0.6689	7.042235	27.10136
2043	7.42959	2.6704230	0.4898	0.4871	7.123314	25.40403
2044	7.34038	2.2779933	0.3347	0.3328	7.326053	21.39413
2045	7.09843	2.1125042	0.2099	0.2088	7.443038	19.83870
2046	6.85577	1.9113389	0.2008	0.1997	7.580746	17.91209
2047	6.67357	1.9059485	0.2037	0.2026	7.612182	17.95202
2048	6.59112	2.0481398	0.2006	0.1995	7.552637	19.46451
2049	6.55919	2.2784662	0.2006	0.1995	7.440018	21.88977
2050	6.60502	2.5066933	0.2006	0.1995	7.317470	24.27175
2051	6.75029	2.6897640	0.2007	0.1996	7.205220	26.11547
2052	6.96610	2.7528093	0.1977	0.1966	7.144900	26.62223
2053	7.15451	2.7849181	0.2008	0.1997	7.104207	26.81746
2054	7.26977	2.8084115	0.1975	0.1964	7.077668	26.97668
2055	7.33179	2.8271555	0.1975	0.1964	7.060518	27.12648
2056	7.36957	2.8436190	0.2006	0.1995	7.047676	27.27085
2057	7.39590	1.4680183	0.2005	0.1994	7.713138	13.23635
2058	7.40665	0.4786040	0.1976	0.1965	8.188023	3.96522
2059	7.40088	0.4356687	0.1976	0.1965	8.209213	3.58777
2060	7.39653	0.3968879	0.2006	0.1995	8.228104	3.24917
2061	7.39291	0.3736839	0.2006	0.1995	8.239567	3.04783
2062	7.38855	0.3634678	0.2005	0.1994	8.245150	2.95971
2063	7.38441	0.3398818	0.2037	0.2026	8.256847	2.75644
