Scan Count	Temperature [ITS-90, deg C]	Conductivity [S/m]	Pressure, Strain Gauge [db]	Depth [salt water, m]	Oxygen Saturation, Weiss [ml/l]	Salinity, Practical [PSU]
1	10.08449	0.0028010	0.1365	0.1357	7.874249	0.02049
2	10.08461	0.0028071	0.1364	0.1357	7.874226	0.02053
3	10.08517	0.0027979	0.1395	0.1387	7.874125	0.02047
4	10.08601	0.0027979	0.1394	0.1387	7.873968	0.02047
5	10.08657	0.0028288	0.1425	0.1417	7.873855	0.02066
6	10.08769	0.0028257	0.1364	0.1356	7.873647	0.02064
7	10.08747	0.0028071	0.1394	0.1387	7.873694	0.02053
8	10.08157	0.0028133	0.1394	0.1386	7.874787	0.02057
9	10.07730	0.0028257	0.1425	0.1417	7.875575	0.02064
10	10.07798	0.0028133	0.1394	0.1386	7.875454	0.02057
11	10.07871	0.0028164	0.1363	0.1356	7.875317	0.02059
12	10.07865	0.0028164	0.1395	0.1388	7.875328	0.02059
13	10.07871	0.0028133	0.1454	0.1446	7.875318	0.02057
14	10.07882	0.0028257	0.1455	0.1447	7.875294	0.02064
15	10.08000	0.0028226	0.1484	0.1476	7.875076	0.02062
16	10.08157	0.0028071	0.1393	0.1385	7.874789	0.02053
17	10.08365	0.0028349	0.1423	0.1416	7.874395	0.02070
18	10.08612	0.0028936	0.1455	0.1447	7.873918	0.02106
19	10.08960	0.0029244	0.1454	0.1446	7.873262	0.02125
20	10.09140	0.0029553	0.1433	0.1425	7.872920	0.02144
21	10.09067	0.0030294	0.1394	0.1386	7.873032	0.02190
22	10.09129	0.0030850	0.1423	0.1415	7.872900	0.02224
23	10.09286	0.0031220	0.1424	0.1416	7.872597	0.02247
24	10.09297	0.0031560	0.1392	0.1384	7.872566	0.02268
25	10.09241	0.0032023	0.1393	0.1385	7.872656	0.02296
26	10.09297	0.0032362	0.1424	0.1416	7.872541	0.02317
27	10.09387	0.0032733	0.1393	0.1385	7.872363	0.02340
28	10.09460	0.0033165	0.1423	0.1415	7.872214	0.02367
29	10.09522	0.0033412	0.1454	0.1446	7.872092	0.02382
30	10.09640	0.0033844	0.1392	0.1385	7.871860	0.02409
31	10.09842	0.0034122	0.1425	0.1417	7.871476	0.02426
32	10.10067	0.0034400	0.1423	0.1416	7.871051	0.02444
33	10.10174	0.0034678	0.1454	0.1446	7.870844	0.02461
34	10.10078	0.0034863	0.1454	0.1446	7.871016	0.02472
35	10.09943	0.0035110	0.1422	0.1414	7.871258	0.02488
36	10.09960	0.0035388	0.1484	0.1476	7.871218	0.02505
37	10.09932	0.0035512	0.1454	0.1446	7.871266	0.02513
38	10.09865	0.0035728	0.1453	0.1445	7.871385	0.02526
39	10.09752	0.0035913	0.1453	0.1445	7.871587	0.02538
40	10.09696	0.0036067	0.1453	0.1445	7.871686	0.02548
41	10.09573	0.0036283	0.1423	0.1416	7.871909	0.02561
42	10.09415	0.0036283	0.1393	0.1385	7.872201	0.02561
43	10.08921	0.0036469	0.1453	0.1445	7.873112	0.02573
44	10.08230	0.0036469	0.1453	0.1445	7.874393	0.02573
45	10.07337	0.0036623	0.1485	0.1477	7.876045	0.02583
46	10.06187	0.0039588	0.1545	0.1536	7.878089	0.02768
47	9.79707	1.2875576	0.2091	0.2080	7.405823	10.73048
48	9.09728	1.5739256	0.2793	0.2777	7.390777	13.60226
49	8.57963	2.6221558	0.3706	0.3686	6.993841	24.09611
50	8.23334	2.6296080	0.4498	0.4473	7.035897	24.40970
51	7.99628	2.6486985	0.5412	0.5382	7.058318	24.77117
52	7.82429	2.6659322	0.6385	0.6350	7.072971	25.07129
53	7.70999	2.6706474	0.7269	0.7229	7.085884	25.20240
54	7.63598	2.6698922	0.8088	0.8044	7.096069	25.24807
55	7.58852	2.6709392	0.9125	0.9075	7.101883	25.29338
56	7.56180	2.6361332	0.9613	0.9560	7.122108	24.95036
57	7.55980	2.6575253	0.9794	0.9740	7.112130	25.17447
58	7.60454	2.6653473	0.9764	0.9711	7.102423	25.22351
59	7.66597	2.6693280	0.9795	0.9741	7.092357	25.22043
60	7.71099	2.6711475	0.9764	0.9710	7.085517	25.20677
61	7.74452	2.6672464	0.9672	0.9619	7.082921	25.14212
62	7.76972	2.6631964	0.9642	0.9589	7.081499	25.08204
63	7.78587	2.6620636	0.9764	0.9711	7.079894	25.05871
64	7.78344	2.6640386	0.9823	0.9770	7.079282	25.08090
65	7.76072	2.6674903	0.9764	0.9711	7.080659	25.13298
66	7.71527	2.6732586	0.9734	0.9680	7.083947	25.22558
67	7.66824	2.6811973	0.9674	0.9621	7.086407	25.34214
68	7.62949	2.6867023	0.9764	0.9711	7.088918	25.42762
69	7.60259	2.6910860	0.9702	0.9649	7.090390	25.49295
70	7.58625	2.6940429	0.9674	0.9621	7.091142	25.53575
71	7.57460	2.6947839	0.9672	0.9619	7.092331	25.55202
72	7.56375	2.6939848	0.9704	0.9650	7.094151	25.55165
73	7.55158	2.6956125	0.9643	0.9590	7.094984	25.57758
74	7.53979	2.6981685	0.9642	0.9589	7.095323	25.61294
75	7.53047	2.6999664	0.9674	0.9621	7.095696	25.63859
76	7.52363	2.7011575	0.9795	0.9742	7.096032	25.65607
77	7.51968	2.7012626	0.9733	0.9680	7.096504	25.66008
78	7.51674	2.7001942	0.9764	0.9710	7.097407	25.65109
79	7.51300	2.6989450	0.9733	0.9680	7.098502	25.64079
80	7.50795	2.6991027	0.9795	0.9741	7.099096	25.64617
81	7.50327	2.6999375	0.9825	0.9771	7.099316	25.65835
82	7.50022	2.7009708	0.9796	0.9742	7.099224	25.67140
83	7.49906	2.7017766	0.9764	0.9710	7.098991	25.68068
84	7.49917	2.7012102	0.9734	0.9680	7.099249	25.67469
85	7.49922	2.6996339	0.9764	0.9711	7.099999	25.65816
86	7.49854	2.6982739	0.9764	0.9711	7.100742	25.64445
87	7.49675	2.6983557	0.9795	0.9741	7.100940	25.64662
88	7.49517	2.6995289	0.9826	0.9772	7.100586	25.66005
89	7.49470	2.7008132	0.9704	0.9651	7.100032	25.67384
90	7.49501	2.7010760	0.9764	0.9710	7.099864	25.67635
91	7.49470	2.7001710	0.9764	0.9711	7.100340	25.66712
92	7.49354	2.6991203	0.9766	0.9712	7.100998	25.65699
93	7.49212	2.6990503	0.9674	0.9621	7.101220	25.65731
94	7.49054	2.6997449	0.9675	0.9622	7.101096	25.66574
95	7.48944	2.7006265	0.9704	0.9651	7.100819	25.67577
96	7.48944	2.7015315	0.9735	0.9681	7.100384	25.68523
97	7.49065	2.7017475	0.9766	0.9713	7.100120	25.68660
98	7.49138	2.7009417	0.9797	0.9743	7.100410	25.67763
99	7.49138	2.6995056	0.9704	0.9650	7.101099	25.66261
100	7.49017	2.6989511	0.9736	0.9682	7.101526	25.65770
101	7.48896	2.6996107	0.9673	0.9620	7.101370	25.66550
102	7.48865	2.7009184	0.9736	0.9682	7.100783	25.67940
103	7.48902	2.7019168	0.9734	0.9680	7.100255	25.68958
104	7.48981	2.7021971	0.9705	0.9651	7.100016	25.69192
105	7.49007	2.7023081	0.9796	0.9742	7.099928	25.69289
106	7.49033	2.7027928	0.9766	0.9713	7.099660	25.69776
107	7.49075	2.7026293	0.9766	0.9712	7.099683	25.69574
108	7.49065	2.7013796	0.9736	0.9683	7.100297	25.68275
109	7.48981	2.6999843	0.9765	0.9711	7.101079	25.66878
110	7.48823	2.6997158	0.9704	0.9651	7.101417	25.66714
111	7.48681	2.7005915	0.9737	0.9684	7.101184	25.67734
112	7.48649	2.7019052	0.9736	0.9682	7.100595	25.69132
113	7.48765	2.7035053	0.9675	0.9622	7.099673	25.70720
114	7.49033	2.7047494	0.9705	0.9652	7.098720	25.71823
115	7.49259	2.7041478	0.9705	0.9651	7.098709	25.71027
116	7.49317	2.7031607	0.9858	0.9804	7.099107	25.69951
117	7.49238	2.7030789	0.9736	0.9683	7.099251	25.69924
118	7.49180	2.7039375	0.9736	0.9682	7.098915	25.70865
119	7.49280	2.7052985	0.9829	0.9775	7.098129	25.72214
120	7.49470	2.7065313	0.9798	0.9744	7.097286	25.73364
121	7.49664	2.7071740	0.9796	0.9742	7.096720	25.73892
122	7.49801	2.7081908	0.9767	0.9713	7.096051	25.74854
123	7.50006	2.7094474	0.9767	0.9714	7.095176	25.76017
124	7.50358	2.7108153	0.9767	0.9713	7.094053	25.77186
125	7.50795	2.7121191	0.9797	0.9743	7.092850	25.78226
126	7.51284	2.7132535	0.9737	0.9684	7.091659	25.79050
127	7.51847	2.7140547	0.9766	0.9713	7.090530	25.79470
128	7.52505	2.7148092	0.9766	0.9713	7.089299	25.79771
129	7.53142	2.7155228	0.9767	0.9714	7.088116	25.80044
130	7.53695	2.7163418	0.9768	0.9714	7.086994	25.80490
131	7.54158	2.7170615	0.9736	0.9682	7.086038	25.80899
132	7.54606	2.7177695	0.9738	0.9684	7.085108	25.81306
133	7.55022	2.7186238	0.9738	0.9684	7.084150	25.81890
134	7.55443	2.7194549	0.9707	0.9653	7.083197	25.82446
135	7.55906	2.7202509	0.9675	0.9622	7.082204	25.82934
136	7.56396	2.7208831	0.9738	0.9684	7.081256	25.83230
137	7.56912	2.7213104	0.9737	0.9684	7.080371	25.83294
138	7.57434	2.7215563	0.9707	0.9654	7.079566	25.83163
139	7.57961	2.7216616	0.9738	0.9685	7.078822	25.82882
140	7.58414	2.7220656	0.9767	0.9713	7.078032	25.82967
141	7.58799	2.7224696	0.9768	0.9714	7.077332	25.83104
142	7.59210	2.7235470	0.9799	0.9745	7.076276	25.83923
143	7.59700	2.7250288	0.9769	0.9715	7.074923	25.85106
144	7.60159	2.7254856	0.9677	0.9624	7.074102	25.85243
145	7.60523	2.7256672	0.9739	0.9685	7.073536	25.85162
146	7.60913	2.7260011	0.9768	0.9714	7.072864	25.85220
147	7.61388	2.7269443	0.9768	0.9714	7.071790	25.85852
148	7.61842	2.7278641	0.9768	0.9714	7.070755	25.86475
149	7.62253	2.7284501	0.9739	0.9686	7.069935	25.86781
150	7.62570	2.7289658	0.9769	0.9715	7.069273	25.87084
151	7.62828	2.7291533	0.9739	0.9685	7.068844	25.87087
152	7.63034	2.7293232	0.9738	0.9685	7.068492	25.87112
153	7.63271	2.7296397	0.9769	0.9715	7.068030	25.87265
154	7.63646	2.7298272	0.9679	0.9625	7.067448	25.87183
155	7.64126	2.7299210	0.9831	0.9777	7.066773	25.86923
156	7.64723	2.7300440	0.9709	0.9656	7.065931	25.86609
157	7.65325	2.7300967	0.9710	0.9657	7.065116	25.86217
158	7.65921	2.7301787	0.9679	0.9625	7.064294	25.85860
159	7.66476	2.7306359	0.9740	0.9687	7.063349	25.85925
160	7.66972	2.7312045	0.9769	0.9716	7.062427	25.86149
161	7.67453	2.7313979	0.9740	0.9687	7.061705	25.85994
162	7.67939	2.7311809	0.9740	0.9687	7.061170	25.85408
163	7.68372	2.7310168	0.9740	0.9687	7.060680	25.84915
164	7.68768	2.7315854	0.9771	0.9717	7.059890	25.85214
165	7.69154	2.7327462	0.9741	0.9688	7.058833	25.86137
166	7.69582	2.7334674	0.9770	0.9716	7.057930	25.86570
167	7.69994	2.7339659	0.9741	0.9687	7.057153	25.86783
168	7.70327	2.7341007	0.9741	0.9687	7.056653	25.86677
169	7.70655	2.7339365	0.9712	0.9659	7.056302	25.86263
170	7.71057	2.7334966	0.9742	0.9688	7.055984	25.85507
171	7.71506	2.7333969	0.9680	0.9627	7.055442	25.85070
172	7.71977	2.7337487	0.9713	0.9660	7.054659	25.85087
173	7.72458	2.7341826	0.9742	0.9689	7.053824	25.85182
174	7.72924	2.7338542	0.9742	0.9689	7.053370	25.84496
175	7.73336	2.7325817	0.9712	0.9659	7.053433	25.82866
176	7.73691	2.7320422	0.9711	0.9658	7.053224	25.82043
177	7.73807	2.7318663	0.9743	0.9690	7.053155	25.81774
178	7.73638	2.7317491	0.9804	0.9750	7.053432	25.81777
179	7.73627	2.7316143	0.9804	0.9750	7.053510	25.81645
180	7.73902	2.7315791	0.9804	0.9750	7.053166	25.81404
181	7.74400	2.7319601	0.9836	0.9782	7.052335	25.81433
182	7.74945	2.7327164	0.9804	0.9750	7.051263	25.81816
183	7.75394	2.7334787	0.9835	0.9781	7.050314	25.82275
184	7.75760	2.7342410	0.9774	0.9720	7.049475	25.82798
185	7.76045	2.7350738	0.9775	0.9721	7.048708	25.83452
186	7.76305	2.7356662	0.9805	0.9751	7.048088	25.83876
187	7.76538	2.7352321	0.9744	0.9691	7.047989	25.83252
188	7.76829	2.7343582	0.9775	0.9722	7.048021	25.82129
189	7.77200	2.7344227	0.9746	0.9692	7.047506	25.81922
190	7.77602	2.7357189	0.9837	0.9783	7.046368	25.82970
191	7.77978	2.7368217	0.9805	0.9751	7.045355	25.83838
192	7.78291	2.7373732	0.9777	0.9723	7.044686	25.84180
193	7.78577	2.7381829	0.9777	0.9723	7.043930	25.84810
194	7.78852	2.7384586	0.9746	0.9693	7.043440	25.84892
195	7.79127	2.7382532	0.9807	0.9753	7.043177	25.84475
196	7.79472	2.7380244	0.9776	0.9722	7.042836	25.83982
197	7.79991	2.7373437	0.9686	0.9633	7.042479	25.82892
198	7.80627	2.7365575	0.9716	0.9663	7.042019	25.81605
199	7.81289	2.7365926	0.9747	0.9694	7.041138	25.81152
200	7.81888	2.7370502	0.9776	0.9722	7.040140	25.81184
201	7.82429	2.7381825	0.9747	0.9693	7.038901	25.81960
202	7.82975	2.7389453	0.9778	0.9725	7.037829	25.82348
203	7.83601	2.7391976	0.9747	0.9693	7.036894	25.82147
204	7.84444	2.7381824	0.9779	0.9725	7.036272	25.80471
205	7.85877	2.7363693	0.9778	0.9724	7.035257	25.77535
206	7.88345	2.7355830	0.9719	0.9665	7.032409	25.74902
207	7.91585	2.7350138	0.9717	0.9664	7.028454	25.71929
208	7.94525	2.7339050	0.9718	0.9664	7.025146	25.68624
209	7.96440	2.7337700	0.9718	0.9665	7.022717	25.67080
210	7.97637	2.7346672	0.9839	0.9785	7.020740	25.67129
211	7.98984	2.7360455	0.9780	0.9726	7.018345	25.67566
212	8.01354	2.7352886	0.9780	0.9726	7.015619	25.65049
213	8.04876	2.7349363	0.9841	0.9786	7.011209	25.62110
214	8.08546	2.7349536	0.9812	0.9758	7.006440	25.59450
215	8.11557	2.7348009	0.9750	0.9696	7.002608	25.57099
216	8.13694	2.7345837	0.9750	0.9696	6.999941	25.55320
217	8.15062	2.7353402	0.9750	0.9696	6.997819	25.55102
218	8.16211	2.7354398	0.9841	0.9787	6.996285	25.54369
219	8.17874	2.7338267	0.9781	0.9727	6.994879	25.51504
220	8.20111	2.7324427	0.9721	0.9667	6.992626	25.48461
221	8.22434	2.7321493	0.9721	0.9668	6.989757	25.46477
222	8.24475	2.7322019	0.9721	0.9668	6.987095	25.45054
223	8.26147	2.7323073	0.9751	0.9697	6.984887	25.43953
224	8.27477	2.7318792	0.9752	0.9698	6.983367	25.42554
225	8.28726	2.7309469	0.9752	0.9699	6.982183	25.40698
226	8.30035	2.7301496	0.9690	0.9636	6.980859	25.38938
227	8.31285	2.7298799	0.9722	0.9669	6.979370	25.37761
228	8.32230	2.7298563	0.9724	0.9670	6.978162	25.37056
229	8.32627	2.7300673	0.9631	0.9578	6.977553	25.36987
230	8.32568	2.7303662	0.9723	0.9670	6.977492	25.37334
231	8.32225	2.7306359	0.9632	0.9579	6.977811	25.37858
232	8.31752	2.7305422	0.9693	0.9639	6.978464	25.38102
233	8.31328	2.7304191	0.9632	0.9579	6.979067	25.38282
234	8.31022	2.7305246	0.9663	0.9610	6.979413	25.38610
235	8.30845	2.7307709	0.9724	0.9671	6.979529	25.38990
236	8.30722	2.7306067	0.9665	0.9611	6.979763	25.38911
237	8.30636	2.7303664	0.9632	0.9579	6.979984	25.38727
238	8.30593	2.7303371	0.9694	0.9641	6.980053	25.38728
239	8.30625	2.7305716	0.9754	0.9700	6.979904	25.38944
240	8.30674	2.7301730	0.9757	0.9704	6.980025	25.38501
241	8.30727	2.7286374	0.9787	0.9733	6.980661	25.36892
242	8.30786	2.7274303	0.9817	0.9763	6.981139	25.35614
243	8.30829	2.7269615	0.9726	0.9673	6.981299	25.35104
244	8.30486	2.7268034	0.9697	0.9644	6.981815	25.35190
245	8.29654	2.7267742	0.9695	0.9642	6.982902	25.35759
246	8.28962	2.7268855	0.9696	0.9643	6.983745	25.36371
247	8.28571	2.7276356	0.9788	0.9734	6.983906	25.37420
248	8.28324	2.7276121	0.9698	0.9645	6.984235	25.37574
249	8.28158	2.7258604	0.9758	0.9705	6.985256	25.35901
250	8.28125	2.7250227	0.9758	0.9705	6.985682	25.35067
251	8.28018	2.7247006	0.9638	0.9585	6.985969	25.34814
252	8.27133	2.7248353	0.9637	0.9584	6.987051	25.35589
253	8.25890	2.7250873	0.9668	0.9615	6.988543	25.36743
254	8.25140	2.7256146	0.9668	0.9615	6.989270	25.37824
255	8.24716	2.7259134	0.9669	0.9616	6.989680	25.38436
256	8.24379	2.7254038	0.9730	0.9676	6.990352	25.38157
257	8.24164	2.7246423	0.9669	0.9616	6.990980	25.37531
258	8.24089	2.7244842	0.9670	0.9617	6.991150	25.37424
259	8.24100	2.7245779	0.9732	0.9679	6.991093	25.37512
260	8.24170	2.7243495	0.9761	0.9708	6.991108	25.37227
261	8.24213	2.7238106	0.9669	0.9616	6.991301	25.36645
262	8.23966	2.7235120	0.9669	0.9616	6.991757	25.36516
263	8.23323	2.7235179	0.9702	0.9648	6.992587	25.36986
264	8.22740	2.7238928	0.9733	0.9680	6.993170	25.37791
265	8.22338	2.7241856	0.9762	0.9708	6.993555	25.38381
266	8.21915	2.7235180	0.9764	0.9710	6.994411	25.38001
267	8.21433	2.7223820	0.9764	0.9710	6.995559	25.37184
268	8.20930	2.7214921	0.9734	0.9681	6.996622	25.36635
269	8.20502	2.7211526	0.9702	0.9649	6.997333	25.36596
270	8.19752	2.7211702	0.9704	0.9650	6.998297	25.37154
271	8.18811	2.7211996	0.9705	0.9652	6.999504	25.37864
272	8.18211	2.7211177	0.9705	0.9652	7.000319	25.38213
273	8.17741	2.7210709	0.9737	0.9683	7.000951	25.38504
274	8.17372	2.7211704	0.9707	0.9653	7.001384	25.38873
275	8.17083	2.7211705	0.9705	0.9652	7.001758	25.39082
276	8.16773	2.7206436	0.9766	0.9712	7.002405	25.38765
277	8.16398	2.7198534	0.9706	0.9653	7.003256	25.38224
278	8.15976	2.7192915	0.9615	0.9563	7.004064	25.37952
279	8.15543	2.7190750	0.9646	0.9593	7.004727	25.38043
280	8.15153	2.7190750	0.9616	0.9563	7.005233	25.38325
281	8.14731	2.7192097	0.9646	0.9593	7.005719	25.38768
282	8.14324	2.7193912	0.9645	0.9592	7.006163	25.39248
283	8.14046	2.7195024	0.9677	0.9624	7.006472	25.39563
284	8.13774	2.7190751	0.9709	0.9655	7.007024	25.39321
285	8.13453	2.7181388	0.9678	0.9625	7.007875	25.38591
286	8.13213	2.7173020	0.9677	0.9624	7.008575	25.37905
287	8.13208	2.7168983	0.9709	0.9656	7.008769	25.37494
288	8.13282	2.7166584	0.9740	0.9687	7.008783	25.37193
289	8.13063	2.7164302	0.9649	0.9596	7.009174	25.37117
290	8.12513	2.7163366	0.9710	0.9657	7.009932	25.37418
291	8.12016	2.7163893	0.9712	0.9658	7.010554	25.37831
292	8.11669	2.7164303	0.9710	0.9656	7.010986	25.38124
293	8.11482	2.7165474	0.9681	0.9627	7.011175	25.38380
294	8.11343	2.7167112	0.9712	0.9659	7.011279	25.38649
295	8.11205	2.7169687	0.9681	0.9628	7.011340	25.39014
296	8.11023	2.7168458	0.9773	0.9719	7.011634	25.39018
297	8.10724	2.7160677	0.9743	0.9689	7.012384	25.38435
298	8.10425	2.7152662	0.9713	0.9659	7.013145	25.37827
299	8.10265	2.7149913	0.9653	0.9600	7.013481	25.37660
300	8.10046	2.7149094	0.9713	0.9659	7.013804	25.37734
301	8.09432	2.7150674	0.9714	0.9661	7.014529	25.38340
302	8.08792	2.7152898	0.9653	0.9600	7.015259	25.39033
303	8.08477	2.7155823	0.9684	0.9630	7.015533	25.39561
304	8.08370	2.7158924	0.9714	0.9661	7.015528	25.39957
305	8.08365	2.7161439	0.9715	0.9661	7.015418	25.40220
306	8.08407	2.7160913	0.9685	0.9632	7.015387	25.40135
307	8.08445	2.7155765	0.9686	0.9633	7.015578	25.39578
308	8.08509	2.7146405	0.9747	0.9693	7.015930	25.38569
309	8.08626	2.7141316	0.9687	0.9634	7.016013	25.37961
310	8.08685	2.7139269	0.9717	0.9663	7.016032	25.37707
311	8.08594	2.7138918	0.9626	0.9573	7.016166	25.37737
312	8.08487	2.7143188	0.9749	0.9695	7.016107	25.38253
313	8.08274	2.7141317	0.9748	0.9694	7.016472	25.38215
314	8.07671	2.7133071	0.9779	0.9725	7.017641	25.37803
315	8.06988	2.7132194	0.9718	0.9665	7.018571	25.38207
316	8.06679	2.7130089	0.9719	0.9666	7.019072	25.38214
317	8.06252	2.7129914	0.9690	0.9637	7.019636	25.38504
318	8.05804	2.7131669	0.9658	0.9605	7.020138	25.39009
319	8.05681	2.7135412	0.9720	0.9667	7.020124	25.39483
320	8.05713	2.7136464	0.9690	0.9637	7.020033	25.39569
321	8.05751	2.7127926	0.9721	0.9667	7.020382	25.38662
322	8.05847	2.7122546	0.9661	0.9608	7.020507	25.38039
323	8.06028	2.7121669	0.9722	0.9669	7.020312	25.37818
324	8.06199	2.7123072	0.9724	0.9671	7.020024	25.37839
325	8.06327	2.7125235	0.9753	0.9700	7.019756	25.37969
326	8.06172	2.7121376	0.9754	0.9700	7.020138	25.37683
327	8.05559	2.7113951	0.9784	0.9730	7.021283	25.37362
328	8.04759	2.7112373	0.9724	0.9671	7.022399	25.37779
329	8.04274	2.7112023	0.9662	0.9609	7.023048	25.38094
330	8.04087	2.7112081	0.9724	0.9671	7.023289	25.38235
331	8.03922	2.7113426	0.9725	0.9671	7.023441	25.38493
332	8.03751	2.7115707	0.9786	0.9732	7.023558	25.38851
333	8.03586	2.7117461	0.9695	0.9642	7.023691	25.39152
334	8.03362	2.7117753	0.9695	0.9642	7.023970	25.39344
335	8.03139	2.7116000	0.9757	0.9703	7.024344	25.39325
336	8.02973	2.7111848	0.9695	0.9642	7.024753	25.39017
337	8.02872	2.7108341	0.9697	0.9643	7.025048	25.38729
338	8.02920	2.7103839	0.9789	0.9735	7.025196	25.38230
339	8.03011	2.7099513	0.9729	0.9675	7.025279	25.37719
340	8.02947	2.7097876	0.9667	0.9614	7.025439	25.37597
341	8.02670	2.7098111	0.9669	0.9616	7.025789	25.37822
342	8.02355	2.7099806	0.9730	0.9676	7.026121	25.38224
343	8.02078	2.7102203	0.9762	0.9708	7.026371	25.38671
344	8.01838	2.7103840	0.9761	0.9707	7.026607	25.39014
345	8.01535	2.7099222	0.9792	0.9738	7.027219	25.38758
346	8.01274	2.7090688	0.9823	0.9769	7.027958	25.38067
347	8.01173	2.7081980	0.9822	0.9768	7.028497	25.37243
348	8.00922	2.7079175	0.9762	0.9708	7.028955	25.37135
349	8.00224	2.7079409	0.9731	0.9678	7.029855	25.37664
350	7.99767	2.7080579	0.9733	0.9679	7.030399	25.38117
351	7.99649	2.7084261	0.9733	0.9679	7.030380	25.38581
352	7.99655	2.7086657	0.9733	0.9680	7.030261	25.38824
353	7.99543	2.7079702	0.9827	0.9773	7.030732	25.38188
354	7.99378	2.7071696	0.9827	0.9773	7.031322	25.37482
355	7.99223	2.7064393	0.9795	0.9741	7.031865	25.36841
356	7.98829	2.7059660	0.9766	0.9713	7.032601	25.36638
357	7.98063	2.7059661	0.9766	0.9713	7.033603	25.37193
358	7.97323	2.7059603	0.9765	0.9711	7.034574	25.37723
359	7.96855	2.7059662	0.9858	0.9804	7.035183	25.38068
360	7.96488	2.7059370	0.9799	0.9745	7.035677	25.38304
361	7.96158	2.7059312	0.9830	0.9776	7.036112	25.38537
362	7.95855	2.7059371	0.9737	0.9684	7.036505	25.38763
363	7.95631	2.7058553	0.9738	0.9685	7.036836	25.38841
364	7.95403	2.7055048	0.9799	0.9745	7.037300	25.38644
365	7.95163	2.7047045	0.9801	0.9747	7.037988	25.37992
366	7.94972	2.7041204	0.9740	0.9686	7.038512	25.37528
367	7.94855	2.7039218	0.9771	0.9717	7.038758	25.37408
368	7.94913	2.7042781	0.9740	0.9687	7.038515	25.37733
369	7.95174	2.7048155	0.9740	0.9687	7.037922	25.38099
370	7.95472	2.7043773	0.9802	0.9748	7.037737	25.37431
371	7.95605	2.7037173	0.9773	0.9719	7.037872	25.36653
372	7.95392	2.7027303	0.9864	0.9810	7.038613	25.35788
373	7.95062	2.7022515	0.9924	0.9870	7.039269	25.35533
374	7.94865	2.7022223	0.9833	0.9779	7.039540	25.35645
375	7.94876	2.7024208	0.9866	0.9811	7.039433	25.35842
376	7.95057	2.7025435	0.9804	0.9750	7.039139	25.35838
377	7.95291	2.7025142	0.9743	0.9690	7.038846	25.35639
378	7.95493	2.7024500	0.9836	0.9782	7.038612	25.35426
379	7.95626	2.7024617	0.9837	0.9782	7.038432	25.35342
380	7.95743	2.7025434	0.9867	0.9813	7.038241	25.35341
381	7.95849	2.7025901	0.9867	0.9813	7.038080	25.35312
382	7.95940	2.7026251	0.9898	0.9844	7.037945	25.35283
383	7.96009	2.7025667	0.9960	0.9905	7.037882	25.35172
384	7.96062	2.7023974	0.9900	0.9845	7.037891	25.34959
385	7.96110	2.7021404	0.9899	0.9845	7.037949	25.34660
386	7.96174	2.7020645	0.9869	0.9815	7.037901	25.34535
387	7.96275	2.7020528	0.9840	0.9786	7.037774	25.34450
388	7.96429	2.7021696	0.9808	0.9754	7.037517	25.34459
389	7.96610	2.7022805	0.9779	0.9726	7.037228	25.34443
390	7.96791	2.7022221	0.9810	0.9756	7.037019	25.34251
391	7.96945	2.7022221	0.9810	0.9757	7.036817	25.34140
392	7.97089	2.7021111	0.9843	0.9789	7.036681	25.33921
393	7.97201	2.7020878	0.9873	0.9819	7.036545	25.33816
394	7.97313	2.7020878	0.9842	0.9788	7.036399	25.33735
395	7.97430	2.7021111	0.9843	0.9789	7.036235	25.33675
396	7.97552	2.7021929	0.9874	0.9820	7.036037	25.33671
397	7.97658	2.7022512	0.9875	0.9821	7.035870	25.33654
398	7.97738	2.7022220	0.9874	0.9820	7.035779	25.33566
399	7.97839	2.7021169	0.9845	0.9791	7.035696	25.33385
400	7.97919	2.7021169	0.9905	0.9850	7.035592	25.33327
401	7.98010	2.7021403	0.9906	0.9852	7.035462	25.33285
402	7.98090	2.7023271	0.9968	0.9914	7.035270	25.33420
403	7.98169	2.7022512	0.9998	0.9943	7.035202	25.33284
404	7.98217	2.7019300	0.9999	0.9944	7.035289	25.32918
405	7.98239	2.7016089	1.0000	0.9945	7.035411	25.32571
406	7.98212	2.7015155	0.9969	0.9914	7.035490	25.32494
407	7.98164	2.7013695	0.9940	0.9886	7.035621	25.32379
408	7.98191	2.7013403	0.9877	0.9823	7.035599	25.32330
409	7.98271	2.7012060	0.9971	0.9917	7.035558	25.32133
410	7.98340	2.7012352	0.9939	0.9885	7.035454	25.32113
411	7.98382	2.7013695	0.9912	0.9857	7.035335	25.32221
412	7.98377	2.7013753	0.9880	0.9826	7.035339	25.32231
413	7.98324	2.7012352	0.9911	0.9857	7.035474	25.32125
414	7.98255	2.7009958	0.9791	0.9737	7.035677	25.31928
415	7.98265	2.7005871	0.9791	0.9737	7.035854	25.31499
416	7.98329	2.6999799	0.9790	0.9736	7.036054	25.30827
417	7.98393	2.6995421	0.9823	0.9769	7.036175	25.30330
418	7.98425	2.6996297	0.9885	0.9831	7.036093	25.30397
419	7.98452	2.7002193	0.9884	0.9830	7.035782	25.30985
420	7.98478	2.7006396	0.9914	0.9860	7.035551	25.31399
421	7.98510	2.7008323	0.9947	0.9892	7.035419	25.31575
422	7.98531	2.7005929	0.9886	0.9832	7.035503	25.31313
423	7.98510	2.7004178	0.9977	0.9922	7.035613	25.31147
424	7.98510	2.7005112	0.9948	0.9893	7.035569	25.31244
425	7.98526	2.7004353	0.9856	0.9802	7.035584	25.31154
426	7.98526	2.6998223	0.9917	0.9862	7.035870	25.30522
427	7.98521	2.6992853	0.9949	0.9894	7.036128	25.29972
428	7.98563	2.6997931	0.9948	0.9893	7.035835	25.30465
429	7.98553	2.7011826	0.9919	0.9864	7.035200	25.31905
430	7.98515	2.7011826	0.9949	0.9894	7.035248	25.31932
431	7.98361	2.7008673	0.9951	0.9896	7.035598	25.31719
432	7.98185	2.7005638	0.9889	0.9835	7.035970	25.31533
433	7.98090	2.6996297	0.9889	0.9835	7.036532	25.30639
434	7.98084	2.6990577	0.9831	0.9777	7.036806	25.30053
435	7.98132	2.6989934	0.9861	0.9807	7.036773	25.29952
436	7.98164	2.6991277	0.9862	0.9808	7.036669	25.30067
437	7.98164	2.6993437	0.9831	0.9777	7.036568	25.30290
438	7.98164	2.6995013	0.9831	0.9777	7.036494	25.30453
439	7.98143	2.6994487	0.9862	0.9808	7.036547	25.30414
440	7.98132	2.6990577	0.9832	0.9778	7.036743	25.30018
441	7.98116	2.6985148	0.9862	0.9808	7.037018	25.29470
442	7.98111	2.6983806	0.9985	0.9931	7.037088	25.29335
443	7.98095	2.6990168	1.0016	0.9961	7.036812	25.30002
444	7.98084	2.7001376	0.9895	0.9840	7.036301	25.31166
445	7.98031	2.7003886	0.9956	0.9901	7.036254	25.31463
446	7.97983	2.7004353	0.9896	0.9842	7.036294	25.31546
447	7.97925	2.7007273	0.9866	0.9812	7.036234	25.31890
448	7.97871	2.7008966	0.9897	0.9842	7.036225	25.32103
449	7.97823	2.7008090	0.9898	0.9843	7.036329	25.32047
450	7.97770	2.6997932	0.9897	0.9842	7.036873	25.31038
451	7.97754	2.6983281	0.9838	0.9784	7.037580	25.29539
452	7.97760	2.6972834	0.9868	0.9814	7.038061	25.28458
453	7.97738	2.6975052	0.9960	0.9905	7.037986	25.28701
454	7.97680	2.6994196	0.9961	0.9907	7.037167	25.30718
455	7.97648	2.7006222	0.9930	0.9875	7.036646	25.31981
456	7.97573	2.7006164	0.9930	0.9875	7.036746	25.32029
457	7.97451	2.6999800	0.9839	0.9785	7.037204	25.31462
458	7.97344	2.6981647	0.9840	0.9786	7.038193	25.29666
459	7.97286	2.6969450	0.9840	0.9786	7.038840	25.28451
460	7.97265	2.6967291	0.9781	0.9727	7.038969	25.28244
461	7.97201	2.6970559	0.9750	0.9697	7.038900	25.28627
462	7.97158	2.6970734	0.9751	0.9698	7.038947	25.28676
463	7.97105	2.6968342	0.9812	0.9758	7.039129	25.28467
464	7.97073	2.6971376	0.9843	0.9789	7.039029	25.28803
465	7.97025	2.6977679	0.9874	0.9820	7.038797	25.29487
466	7.96993	2.6978204	0.9936	0.9881	7.038814	25.29564
467	7.96951	2.6977620	0.9935	0.9881	7.038897	25.29535
468	7.96898	2.6984858	0.9906	0.9851	7.038628	25.30320
469	7.96871	2.6991803	0.9877	0.9823	7.038338	25.31056
470	7.96823	2.6989177	0.9876	0.9821	7.038524	25.30819
471	7.96759	2.6982990	0.9966	0.9912	7.038897	25.30227
472	7.96717	2.6992854	0.9937	0.9883	7.038491	25.31275
473	7.96658	2.7001669	0.9906	0.9852	7.038155	25.32227
474	7.96605	2.7000852	0.9939	0.9885	7.038263	25.32181
475	7.96498	2.7000210	0.9880	0.9825	7.038432	25.32192
476	7.96413	2.7000618	0.9909	0.9854	7.038525	25.32296
477	7.96334	2.7001377	0.9847	0.9793	7.038594	25.32432
478	7.96232	2.7001903	0.9880	0.9825	7.038701	25.32559
479	7.96121	2.7000327	0.9880	0.9826	7.038922	25.32477
480	7.96046	2.6994723	0.9848	0.9794	7.039281	25.31953
481	7.95977	2.6990578	0.9788	0.9734	7.039566	25.31576
482	7.95887	2.6989119	0.9698	0.9645	7.039753	25.31491
483	7.95669	2.6987777	0.9791	0.9737	7.040101	25.31510
484	7.95498	2.6988886	0.9731	0.9677	7.040272	25.31747
485	7.95339	2.6989412	0.9821	0.9767	7.040457	25.31917
486	7.95158	2.6981299	0.9852	0.9798	7.041074	25.31210
487	7.95041	2.6952357	1.0190	1.0134	7.042584	25.28307
488	7.95014	2.6937715	1.0797	1.0738	7.043306	25.26813
489	7.94924	2.6936723	1.1742	1.1678	7.043472	25.26773
490	7.93483	2.7043834	1.3173	1.3101	7.040344	25.38866
491	7.85734	2.7541951	1.4877	1.4795	7.027067	25.96108
492	7.76580	2.7848598	1.6584	1.6493	7.024489	26.34836
493	7.69054	2.8056368	1.8442	1.8340	7.024393	26.62224
494	7.63208	2.8179086	2.0604	2.0490	7.026117	26.79537
495	7.58862	2.8253015	2.2917	2.2791	7.028209	26.90630
496	7.55722	2.8282466	2.5169	2.5031	7.030860	26.96144
497	7.53479	2.8318165	2.7392	2.7241	7.032053	27.01627
498	7.52000	2.8352156	2.9646	2.9483	7.032340	27.06342
499	7.51505	2.8427141	3.1930	3.1754	7.029395	27.14607
500	7.52542	2.8551343	3.4517	3.4327	7.022126	27.26858
501	7.54895	2.8614114	3.6953	3.6750	7.016113	27.31607
502	7.57698	2.8703203	3.9511	3.9294	7.008280	27.38765
503	7.60360	2.8765081	4.1946	4.1715	7.001937	27.43166
504	7.62717	2.8816127	4.4414	4.4169	6.996508	27.46662
505	7.64659	2.8857992	4.6878	4.6620	6.992051	27.49518
506	7.66190	2.8887312	4.9438	4.9166	6.988717	27.51378
507	7.67363	2.8916583	5.2024	5.1738	6.985845	27.53515
508	7.68277	2.8942511	5.4493	5.4193	6.983461	27.55505
509	7.68969	2.8963835	5.7078	5.6764	6.981577	27.57186
510	7.69587	2.9000747	5.9697	5.9368	6.979051	27.60560
511	7.70227	2.9028862	6.2316	6.1972	6.976916	27.62994
512	7.70829	2.9055907	6.4844	6.4486	6.974878	27.65345
513	7.71374	2.9076423	6.7432	6.7060	6.973224	27.67055
514	7.71802	2.9101325	6.9867	6.9482	6.971510	27.69319
515	7.72199	2.9130857	7.2517	7.2118	6.969619	27.72093
516	7.72638	2.9167427	7.5103	7.4689	6.967342	27.75571
517	7.73082	2.9200289	7.7570	7.7142	6.965235	27.78657
518	7.73505	2.9225591	8.0156	7.9714	6.963511	27.80965
519	7.73918	2.9250901	8.2533	8.2078	6.961801	27.83282
520	7.74606	2.9304855	8.5152	8.4683	6.958395	27.88385
521	7.75484	2.9342650	8.7618	8.7135	6.955513	27.91640
522	7.76474	2.9378777	9.0205	8.9708	6.952572	27.94628
523	7.77586	2.9411907	9.2640	9.2129	6.949621	27.97204
524	7.78672	2.9445293	9.5199	9.4674	6.946694	27.99826
525	7.79790	2.9497630	9.7758	9.7218	6.942837	28.04409
526	7.80903	2.9519950	10.0345	9.9792	6.940401	28.05846
527	7.81798	2.9530811	10.2902	10.2334	6.938775	28.06255
528	7.82477	2.9553926	10.5428	10.4846	6.936847	28.08123
529	7.83028	2.9591237	10.8139	10.7542	6.934412	28.11580
530	7.83590	2.9649110	11.0788	11.0176	6.931002	28.17185
531	7.83935	2.9683141	11.3345	11.2719	6.928981	28.20465
532	7.83781	2.9703398	11.5933	11.5293	6.928228	28.22703
533	7.83325	2.9717552	11.8491	11.7837	6.928137	28.24545
534	7.82811	2.9730256	12.1019	12.0351	6.928186	28.26284
535	7.82360	2.9746411	12.3637	12.2954	6.927994	28.28333
536	7.81920	2.9756396	12.6133	12.5436	6.928077	28.29727
537	7.81486	2.9783815	12.8874	12.8162	6.927336	28.32947
538	7.80945	2.9797074	13.1492	13.0765	6.927391	28.34767
539	7.80510	2.9800951	13.4141	13.3400	6.927755	28.35516
540	7.80293	2.9808884	13.6607	13.5852	6.927657	28.36516
541	7.80198	2.9834019	13.9163	13.8394	6.926600	28.39223
542	7.80208	2.9873887	14.1662	14.0879	6.924719	28.43393
543	7.80139	2.9902316	14.4279	14.3481	6.923474	28.46425
544	7.80028	2.9918384	14.6745	14.5934	6.922863	28.48194
545	7.79906	2.9928512	14.9364	14.8538	6.922543	28.49348
546	7.79710	2.9945374	15.1862	15.1022	6.921999	28.51270
547	7.79456	2.9987483	15.4478	15.3624	6.920342	28.55894
548	7.79392	3.0004904	15.6945	15.6077	6.919607	28.57768
549	7.79525	3.0033015	15.9504	15.8622	6.918127	28.60605
550	7.79800	3.0091879	16.2091	16.1194	6.915027	28.66559
551	7.80712	3.0150847	16.4588	16.3677	6.911138	28.72003
552	7.82795	3.0197261	16.7175	16.6250	6.906396	28.75159
553	7.85399	3.0232925	16.9672	16.8733	6.901522	28.76754
554	7.87671	3.0241690	17.2108	17.1156	6.898320	28.75795
555	7.89147	3.0257886	17.4758	17.3791	6.895753	28.76271
556	7.90167	3.0262514	17.7498	17.6515	6.894288	28.75906
557	7.90507	3.0284502	18.0541	17.9541	6.892850	28.77922
558	7.90098	3.0316125	18.3039	18.2025	6.891882	28.81568
559	7.89503	3.0327035	18.5720	18.4691	6.892108	28.83192
560	7.89094	3.0346176	18.8308	18.7264	6.891721	28.85529
561	7.88589	3.0352578	19.0924	18.9867	6.892046	28.86607
562	7.88064	3.0356787	19.3513	19.2441	6.892500	28.87473
563	7.87416	3.0362093	19.6193	19.5106	6.893052	28.88554
564	7.86530	3.0375937	19.8780	19.7678	6.893498	28.90731
565	7.85543	3.0379354	20.1306	20.0191	6.894555	28.91896
566	7.84354	3.0368927	20.3896	20.2766	6.896506	28.91773
567	7.82482	3.0356064	20.6423	20.5279	6.899414	28.91958
568	7.80102	3.0377471	20.9010	20.7851	6.901341	28.96174
569	7.78746	3.0409009	21.1629	21.0455	6.901533	29.00611
570	7.78508	3.0444953	21.4158	21.2970	6.900143	29.04587
571	7.79016	3.0496729	21.6713	21.5511	6.897094	29.09610
572	7.80335	3.0520613	21.9210	21.7994	6.894360	29.11017
573	7.81586	3.0533199	22.1796	22.0565	6.892243	29.11289
574	7.82387	3.0549943	22.4326	22.3082	6.890483	29.12375
575	7.82912	3.0592002	22.6976	22.5716	6.887876	29.16356
576	7.83373	3.0643995	22.9534	22.8260	6.884883	29.21436
577	7.83776	3.0667005	23.2120	23.0831	6.883319	29.23512
578	7.84126	3.0691124	23.4800	23.3497	6.881769	29.25749
579	7.84471	3.0708452	23.7328	23.6011	6.880542	29.27275
580	7.84837	3.0750288	24.0037	23.8704	6.878145	29.31364
581	7.85373	3.0809494	24.2594	24.1247	6.874730	29.37141
582	7.86259	3.0892124	24.5152	24.3791	6.869797	29.45091
583	7.87294	3.0996773	24.7771	24.6395	6.863661	29.55235
584	7.88181	3.1062800	25.0390	24.8999	6.859513	29.61433
585	7.88016	3.1081992	25.2976	25.1571	6.858822	29.63584
586	7.84285	3.1095839	25.5442	25.4023	6.862693	29.68201
587	7.79769	3.1088707	25.8000	25.6567	6.868500	29.71278
588	7.75850	3.1105017	26.0528	25.9080	6.872490	29.76332
589	7.73654	3.1199160	26.3025	26.1563	6.870733	29.88165
590	7.73749	3.1245439	26.5582	26.4106	6.868449	29.92974
591	7.74870	3.1270777	26.8169	26.6678	6.865908	29.94684
592	7.75823	3.1279964	27.0577	26.9073	6.864330	29.94828
593	7.76395	3.1283233	27.3073	27.1555	6.863491	29.94673
594	7.76697	3.1289585	27.5630	27.4097	6.862834	29.95075
595	7.77073	3.1318022	27.8125	27.6579	6.861051	29.97752
596	7.78052	3.1357948	28.0744	27.9183	6.858004	30.01125
597	7.79180	3.1376775	28.3668	28.2090	6.855768	30.02134
598	7.80092	3.1384308	28.6316	28.4724	6.854323	30.02136
599	7.80696	3.1396163	28.8752	28.7146	6.853045	30.02860
600	7.81109	3.1414692	29.1401	28.9780	6.851686	30.04453
601	7.81470	3.1443727	29.3898	29.2262	6.849900	30.07204
602	7.81676	3.1484395	29.6548	29.4898	6.847755	30.11317
603	7.81798	3.1570182	29.9104	29.7439	6.843603	30.20279
604	7.82477	3.1600325	30.1569	29.9890	6.841386	30.22871
605	7.82896	3.1618094	30.4159	30.2466	6.840059	30.24378
606	7.82965	3.1646396	30.6777	30.5069	6.838660	30.27302
607	7.83129	3.1678364	30.9366	30.7643	6.836975	30.30532
608	7.83309	3.1700860	31.2015	31.0277	6.835714	30.32745
609	7.83272	3.1731175	31.4510	31.2759	6.834348	30.35976
610	7.82837	3.1750213	31.7098	31.5332	6.833983	30.38359
611	7.82424	3.1765100	31.9656	31.7875	6.833787	30.40284
612	7.82191	3.1775647	32.2274	32.0479	6.833578	30.41593
613	7.81947	3.1786567	32.4681	32.2872	6.833363	30.42952
614	7.81772	3.1809775	32.7269	32.5445	6.832493	30.45552
615	7.81417	3.1841434	32.9794	32.7956	6.831442	30.49206
616	7.80887	3.1857206	33.2352	33.0499	6.831342	30.51329
617	7.80182	3.1865094	33.4787	33.2921	6.831818	30.52771
618	7.79461	3.1869692	33.7346	33.5466	6.832467	30.53878
619	7.78826	3.1872115	33.9903	33.8008	6.833116	30.54680
620	7.78243	3.1874849	34.2399	34.0490	6.833688	30.55470
621	7.77666	3.1876093	34.4988	34.3064	6.834323	30.56096
622	7.77120	3.1880256	34.7516	34.5578	6.834784	30.57004
623	7.76506	3.1880009	34.9982	34.8030	6.835532	30.57506
624	7.75993	3.1880631	35.2539	35.0572	6.836121	30.58011
625	7.75654	3.1879390	35.5005	35.3025	6.836588	30.58165
626	7.75230	3.1883988	35.7502	35.5507	6.836882	30.59013
627	7.74362	3.1894612	36.0030	35.8020	6.837424	30.60892
628	7.73082	3.1901324	36.2587	36.0563	6.838642	30.62718
629	7.71908	3.1902817	36.5113	36.3075	6.839977	30.63898
630	7.70708	3.1899526	36.7609	36.5557	6.841569	30.64592
631	7.69439	3.1899156	37.0076	36.8010	6.843106	30.65658
632	7.68493	3.1922024	37.2513	37.0433	6.843165	30.68913
633	7.68287	3.1926251	37.5069	37.2975	6.843217	30.69533
634	7.67896	3.1928116	37.7504	37.5396	6.843601	30.70065
635	7.67183	3.1935079	37.9942	37.7820	6.844129	30.71424
636	7.66069	3.1939680	38.2560	38.0423	6.845248	30.72886
637	7.64401	3.1937818	38.5086	38.2934	6.847333	30.74149
638	7.62691	3.1937821	38.7856	38.5689	6.849381	30.75648
639	7.60998	3.1937139	39.0324	38.8143	6.851441	30.77061
640	7.59342	3.1936955	39.2695	39.0501	6.853434	30.78496
641	7.57850	3.1935715	39.5164	39.2955	6.855282	30.79673
642	7.56496	3.1934163	39.7601	39.5378	6.856980	30.80696
643	7.55295	3.1933916	40.0006	39.7770	6.858434	30.81723
644	7.54211	3.1934167	40.2532	40.0282	6.859726	30.82701
645	7.53158	3.1932988	40.5059	40.2794	6.861047	30.83498
646	7.52221	3.1934170	40.7555	40.5276	6.862118	30.84444
647	7.51526	3.1935104	41.0022	40.7729	6.862911	30.85150
648	7.50953	3.1935541	41.2518	41.0211	6.863582	30.85695
649	7.50327	3.1931440	41.5046	41.2725	6.864532	30.85801
650	7.49564	3.1928396	41.7511	41.5176	6.865596	30.86142
651	7.48702	3.1925974	42.0100	41.7749	6.866750	30.86638
652	7.47777	3.1926597	42.2626	42.0262	6.867835	30.87516
653	7.47041	3.1927531	42.5153	42.2774	6.868678	30.88259
654	7.46494	3.1926911	42.7620	42.5227	6.869368	30.88668
655	7.46037	3.1922624	43.0116	42.7708	6.870125	30.88605
656	7.45365	3.1925111	43.2675	43.0253	6.870819	30.89458
657	7.44309	3.1922068	43.5231	43.2795	6.872236	30.90061
658	7.42870	3.1915359	43.7728	43.5277	6.874288	30.90612
659	7.40880	3.1910763	44.0255	43.7789	6.876902	30.91881
660	7.38777	3.1908654	44.2691	44.0212	6.879536	30.93521
661	7.37083	3.1906544	44.5219	44.2725	6.881679	30.94795
662	7.35804	3.1903501	44.7715	44.5207	6.883368	30.95599
663	7.34646	3.1903192	45.0090	44.7569	6.884781	30.96590
664	7.33750	3.1902573	45.2554	45.0018	6.885894	30.97314
665	7.33184	3.1897977	45.5022	45.2473	6.886800	30.97314
666	7.32514	3.1894685	45.7429	45.4865	6.887770	30.97549
667	7.31796	3.1893444	45.9864	45.7287	6.888698	30.98047
668	7.30597	3.1890154	46.2331	45.9740	6.890305	30.98755
669	7.29043	3.1886802	46.4827	46.2222	6.892345	30.99774
670	7.27270	3.1883760	46.7231	46.4612	6.894634	31.01025
671	7.25528	3.1880719	46.9607	46.6974	6.896885	31.02248
672	7.23908	3.1879169	47.2194	46.9546	6.898920	31.03523
673	7.22764	3.1878426	47.4721	47.2059	6.900342	31.04459
674	7.21959	3.1870663	47.7247	47.4571	6.901693	31.04333
675	7.20925	3.1869175	47.9745	47.7054	6.903019	31.05090
676	7.19922	3.1864332	48.2332	47.9626	6.904469	31.05456
677	7.18821	3.1862471	48.4890	48.2170	6.905896	31.06234
678	7.17782	3.1859492	48.7419	48.4684	6.907300	31.06835
679	7.16739	3.1859184	48.9884	48.7135	6.908582	31.07729
680	7.15821	3.1861607	49.2439	48.9676	6.909580	31.08805
681	7.14966	3.1863410	49.5028	49.2249	6.910533	31.09758
682	7.13865	3.1859748	49.7464	49.4671	6.912046	31.10343
683	7.12333	3.1848263	49.9901	49.7094	6.914463	31.10471
684	7.09603	3.1777017	50.2334	49.9514	6.921234	31.05214
685	7.04045	3.1754321	50.4802	50.1968	6.929093	31.07752
686	6.98759	3.1745831	50.7266	50.4418	6.935942	31.11591
687	6.95193	3.1742238	50.9672	50.6810	6.940466	31.14415
688	6.93045	3.1728166	51.2230	50.9353	6.943778	31.14819
689	6.90333	3.1673689	51.4514	51.1623	6.949764	31.11341
690	6.83724	3.1657402	51.7103	51.4197	6.958649	31.15543
691	6.76945	3.1649853	51.9536	51.6617	6.967329	31.20865
692	6.71931	3.1653823	52.2065	51.9131	6.973286	31.25853
693	6.68414	3.1654880	52.4469	52.1522	6.977556	31.29167
694	6.65651	3.1655008	52.6938	52.3976	6.980948	31.31694
695	6.63662	3.1658604	52.9463	52.6487	6.983218	31.33895
696	6.62427	3.1663128	53.1960	52.8969	6.984517	31.35511
697	6.61675	3.1670378	53.4487	53.1482	6.985085	31.36983
698	6.61114	3.1678868	53.6984	53.3965	6.985356	31.38417
699	6.60728	3.1684199	53.9480	53.6446	6.985570	31.39344
700	6.60373	3.1689405	54.2131	53.9082	6.985752	31.40228
701	6.59987	3.1691823	54.4656	54.1593	6.986111	31.40836
702	6.59565	3.1696039	54.7213	54.4135	6.986425	31.41674
703	6.59102	3.1697280	54.9680	54.6588	6.986938	31.42224
704	6.58773	3.1697591	55.2205	54.9098	6.987332	31.42549
705	6.58516	3.1698212	55.4641	55.1520	6.987622	31.42842
706	6.58279	3.1697841	55.7106	55.3971	6.987937	31.43007
707	6.58089	3.1698151	55.9514	55.6365	6.988161	31.43205
708	6.57945	3.1697842	56.1979	55.8816	6.988358	31.43292
709	6.57842	3.1697595	56.4354	56.1176	6.988502	31.43348
710	6.57749	3.1697596	56.6729	56.3538	6.988621	31.43422
711	6.57646	3.1696977	56.9165	56.5960	6.988784	31.43437
712	6.57580	3.1695739	57.1540	56.8321	6.988933	31.43352
713	6.57477	3.1695739	57.3853	57.0621	6.989064	31.43435
714	6.57410	3.1695740	57.6321	57.3074	6.989151	31.43486
715	6.57328	3.1695741	57.8724	57.5464	6.989258	31.43550
716	6.57148	3.1697291	58.1435	57.8160	6.989407	31.43873
717	6.56644	3.1701507	58.4175	58.0884	6.989822	31.44786
718	6.56006	3.1702376	58.6549	58.3244	6.990568	31.45457
719	6.55446	3.1705725	58.8955	58.5636	6.991094	31.46329
720	6.54773	3.1715396	59.1452	58.8118	6.991444	31.48000
721	6.54135	3.1718125	59.4009	59.0661	6.992097	31.48875
722	6.53678	3.1717693	59.6475	59.3112	6.992686	31.49237
723	6.53303	3.1718748	59.8879	59.5503	6.993100	31.49687
724	6.52882	3.1720547	60.1438	59.8047	6.993533	31.50261
725	6.52527	3.1722966	60.3933	60.0528	6.993854	31.50842
726	6.52296	3.1723587	60.6340	60.2920	6.994112	31.51112
727	6.52127	3.1725076	60.8744	60.5311	6.994251	31.51421
728	6.52029	3.1731091	61.1209	60.7762	6.994075	31.52161
729	6.52111	3.1733819	61.3645	61.0183	6.993842	31.52374
730	6.52188	3.1736238	61.6111	61.2635	6.993632	31.52557
731	6.52173	3.1752610	61.8520	61.5030	6.992836	31.54361
732	6.52106	3.1756829	62.1014	61.7510	6.992712	31.54875
733	6.52034	3.1762846	62.3418	61.9900	6.992504	31.55592
734	6.51983	3.1765886	62.5887	62.2354	6.992420	31.55962
735	6.51957	3.1771966	62.8321	62.4774	6.992152	31.56643
736	6.52070	3.1782265	63.0848	62.7287	6.991502	31.57660
737	6.52266	3.1785305	63.3375	62.9799	6.991116	31.57802
738	6.52389	3.1786795	63.5812	63.2222	6.990895	31.57841
739	6.52481	3.1789216	63.8278	63.4673	6.990665	31.58010
740	6.52569	3.1792257	64.0895	63.7275	6.990411	31.58251
741	6.52692	3.1793374	64.3452	63.9817	6.990209	31.58248
742	6.52728	3.1794988	64.5979	64.2329	6.990090	31.58381
743	6.52666	3.1798588	64.8538	64.4874	6.989990	31.58822
744	6.52666	3.1802560	65.1095	64.7416	6.989797	31.59247
745	6.52630	3.1804051	65.3682	64.9988	6.989772	31.59432
746	6.52527	3.1815905	65.6272	65.2563	6.989310	31.60819
747	6.52682	3.1824968	65.8798	65.5074	6.988672	31.61661
748	6.53092	3.1833411	66.1327	65.7588	6.987751	31.62198
749	6.53596	3.1848063	66.3821	66.0068	6.986405	31.63332
750	6.54213	3.1856570	66.6317	66.2550	6.985228	31.63685
751	6.54567	3.1855328	66.8844	66.5062	6.984861	31.63209
752	6.54593	3.1861104	67.1371	66.7574	6.984546	31.63808
753	6.54690	3.1864458	67.3869	67.0058	6.984263	31.64075
754	6.54947	3.1893901	67.6454	67.2628	6.982482	31.67062
755	6.55996	3.1910054	67.9105	67.5263	6.980395	31.67854
756	6.57328	3.1913223	68.1845	67.7987	6.978613	31.66957
757	6.58222	3.1912477	68.4433	68.0561	6.977560	31.66034
758	6.58552	3.1894211	68.6840	68.2953	6.978074	31.63712
759	6.58022	3.1891789	68.9455	68.5553	6.978849	31.63924
760	6.57209	3.1896637	69.2043	68.8126	6.979607	31.65196
761	6.56567	3.1890550	69.4753	69.0820	6.980704	31.65109
762	6.55919	3.1882352	69.7280	69.3332	6.981913	31.64796
763	6.55102	3.1861733	69.9808	69.5846	6.983951	31.63273
764	6.53765	3.1842983	70.2456	69.8478	6.986533	31.62435
765	6.51963	3.1832867	70.5013	70.1020	6.989258	31.62979
766	6.50140	3.1829889	70.7692	70.3684	6.991651	31.64326
767	6.48780	3.1828960	71.0189	70.6166	6.993374	31.65472
768	6.47851	3.1828962	71.2837	70.8799	6.994521	31.66321
769	6.47133	3.1830454	71.5395	71.1342	6.995334	31.67139
770	6.46620	3.1840512	71.7952	71.3884	6.995465	31.68711
771	6.46599	3.1855849	72.0570	71.6486	6.994725	31.70408
772	6.47215	3.1884853	72.3189	71.9090	6.992518	31.73020
773	6.48887	3.1954515	72.5748	72.1634	6.986976	31.79129
774	6.52250	3.1992009	72.8212	72.4084	6.980986	31.80117
775	6.55919	3.2000528	73.0710	72.6567	6.976079	31.77632
776	6.58562	3.2006933	73.3330	72.9172	6.972536	31.75869
777	6.60136	3.2001769	73.5795	73.1622	6.970876	31.73829
778	6.60795	3.1997788	73.8410	73.4222	6.970276	31.72769
779	6.60898	3.2005440	74.1030	73.6827	6.969774	31.73502
780	6.61140	3.2014585	74.3466	73.9248	6.969029	31.74270
781	6.61495	3.2013279	74.5933	74.1701	6.968665	31.73786
782	6.61644	3.2015831	74.8397	74.4151	6.968361	31.73916
783	6.61721	3.2014898	75.1016	74.6754	6.968319	31.73730
784	6.61577	3.2003888	75.3516	74.9239	6.969049	31.72643
785	6.60898	3.1998104	75.6134	75.1842	6.970172	31.72625
786	6.59972	3.1994747	75.8627	75.4321	6.971476	31.73104
787	6.59102	3.1987099	76.1123	75.6802	6.972924	31.73058
788	6.58192	3.1989277	76.3530	75.9195	6.973933	31.74131
789	6.57626	3.2000848	76.6056	76.1706	6.974052	31.75916
790	6.57626	3.2008189	76.8555	76.4190	6.973691	31.76711
791	6.57960	3.2013042	77.1051	76.6672	6.973046	31.76922
792	6.58336	3.2010056	77.3638	76.9244	6.972742	31.76233
793	6.58305	3.1996869	77.6166	77.1757	6.973443	31.74801
794	6.57574	3.2001785	77.8783	77.4359	6.974096	31.76007
795	6.56808	3.2003590	78.1766	77.7324	6.974948	31.76903
796	6.56284	3.2003903	78.4387	77.9929	6.975579	31.77412
797	6.55945	3.2004215	78.6912	78.2439	6.975983	31.77749
798	6.55616	3.2003283	78.9378	78.4891	6.976437	31.77941
799	6.55235	3.2001169	79.1967	78.7465	6.977013	31.78050
800	6.54824	3.1999055	79.4433	78.9917	6.977627	31.78188
801	6.54444	3.1992028	79.6868	79.2337	6.978448	31.77757
802	6.53663	3.1985624	79.9518	79.4972	6.979729	31.77766
803	6.52553	3.1988673	80.2013	79.7452	6.980940	31.79121
804	6.51916	3.2007584	80.4542	79.9966	6.980777	31.81784
805	6.51998	3.2022827	80.7098	80.2507	6.979919	31.83373
806	6.52512	3.2037201	80.9534	80.4929	6.978577	31.84466
807	6.53175	3.2039940	81.2032	80.7412	6.977636	31.84138
808	6.53601	3.2043301	81.4710	81.0074	6.976952	31.84099
809	6.53940	3.2071125	81.7146	81.2496	6.975152	31.86833
810	6.54917	3.2108487	81.9705	81.5040	6.972098	31.90023
811	6.56664	3.2115524	82.2169	81.7490	6.969621	31.89156
812	6.57996	3.2079404	82.4696	82.0001	6.969805	31.83931
813	6.57040	3.1999685	82.7193	82.2484	6.974957	31.76045
814	6.53247	3.2013002	82.9749	82.5025	6.978933	31.81023
815	6.50453	3.2017672	83.2248	82.7509	6.982122	31.84127
816	6.48954	3.2014004	83.4835	83.0081	6.984145	31.85108
817	6.47974	3.2025952	83.7392	83.2623	6.984750	31.87327
818	6.47928	3.2106694	83.9797	83.5014	6.980762	31.96260
819	6.50633	3.2177226	84.2355	83.7556	6.973932	32.01491
820	6.55030	3.2191311	84.4943	84.0129	6.967876	31.98914
821	6.58305	3.2179339	84.7441	84.2612	6.964493	31.94525
822	6.59313	3.2162758	84.9873	84.5030	6.964098	31.91749
823	6.58660	3.2135155	85.2462	84.7603	6.966275	31.89312
824	6.56417	3.2044244	85.4990	85.0117	6.973551	31.81392
825	6.51254	3.2032364	85.7458	85.2570	6.980460	31.84880
826	6.46430	3.2044567	85.9983	85.5080	6.985754	31.90714
827	6.43605	3.2048803	86.2510	85.7592	6.989005	31.93811
828	6.42073	3.2045506	86.4887	85.9955	6.991052	31.94870
829	6.41074	3.2045819	86.7320	86.2374	6.992265	31.95829
830	6.40444	3.2045510	86.9726	86.4766	6.993058	31.96373
831	6.40019	3.2050365	87.2224	86.7249	6.993339	31.97296
832	6.39829	3.2048873	87.4780	86.9790	6.993652	31.97297
833	6.39624	3.2042152	87.7399	87.2394	6.994247	31.96734
834	6.39118	3.2023485	88.0381	87.5358	6.995816	31.95132
835	6.37802	3.1978638	88.3123	87.8083	6.999698	31.91394
836	6.35121	3.1958247	88.5587	88.0533	7.004026	31.91637
837	6.32324	3.1955204	88.8023	88.2955	7.007624	31.93909
838	6.30397	3.1953466	89.0551	88.5467	7.010088	31.95512
839	6.29222	3.1943024	89.3108	88.8009	7.012069	31.95445
840	6.28140	3.1939980	89.5604	89.0491	7.013561	31.96113
841	6.27205	3.1938739	89.8040	89.2912	7.014781	31.96841
842	6.26623	3.1941475	90.0690	89.5546	7.015364	31.97678
843	6.26373	3.1943901	90.3215	89.8057	7.015555	31.98170
844	6.26220	3.1947258	90.5743	90.0569	7.015578	31.98674
845	6.26169	3.1948813	90.8271	90.3082	7.015568	31.98882
846	6.26149	3.1948192	91.0768	90.5564	7.015630	31.98821
847	6.26006	3.1936445	91.3294	90.8076	7.016408	31.97641
848	6.25419	3.1930852	91.5850	91.0617	7.017421	31.97560
849	6.24669	3.1926255	91.8471	91.3222	7.018585	31.97742
850	6.23934	3.1928432	92.0876	91.5613	7.019385	31.98663
851	6.23480	3.1932038	92.3311	91.8033	7.019767	31.99478
852	6.23337	3.1935706	92.5837	92.0544	7.019762	32.00007
853	6.23368	3.1938441	92.8334	92.3026	7.019590	32.00270
854	6.23465	3.1939063	93.0832	92.5510	7.019445	32.00236
855	6.23572	3.1939375	93.3419	92.8081	7.019302	32.00158
856	6.23618	3.1941613	93.5916	93.0563	7.019137	32.00351
857	6.23720	3.1946960	93.8321	93.2954	7.018745	32.00837
858	6.23929	3.1953985	94.0878	93.5496	7.018136	32.01408
859	6.24230	3.1955229	94.3436	93.8039	7.017707	32.01250
860	6.24312	3.1949137	94.5780	94.0368	7.017921	32.00486
861	6.24021	3.1941803	94.8337	94.2911	7.018658	31.99934
862	6.23399	3.1934470	95.0804	94.5363	7.019804	31.99694
863	6.22669	3.1931737	95.3390	94.7934	7.020848	32.00064
864	6.22052	3.1937829	95.5796	95.0325	7.021304	32.01310
865	6.21792	3.1937458	95.8263	95.2778	7.021649	32.01501
866	6.21619	3.1938764	96.0698	95.5198	7.021801	32.01798
867	6.21400	3.1938765	96.3133	95.7619	7.022077	32.01993
868	6.21196	3.1937833	96.5509	95.9980	7.022381	32.02070
869	6.20895	3.1937275	96.7974	96.2431	7.022786	32.02279
870	6.20589	3.1937525	97.0502	96.4944	7.023156	32.02583
871	6.20319	3.1941504	97.2968	96.7395	7.023292	32.03268
872	6.20232	3.1943618	97.5527	96.9938	7.023297	32.03572
873	6.20232	3.1946976	97.8143	97.2539	7.023132	32.03933
874	6.20227	3.1949028	98.0823	97.5203	7.023039	32.04153
875	6.20171	3.1949153	98.3229	97.7595	7.023107	32.04208
876	6.20064	3.1947289	98.5633	97.9985	7.023339	32.04090
877	6.19830	3.1938463	98.8132	98.2468	7.024084	32.03319
878	6.19004	3.1894344	99.0627	98.4948	7.027357	31.99183
879	6.16931	3.1889191	99.3123	98.7430	7.030187	32.00550
880	6.15072	3.1880373	99.5497	98.9790	7.032940	32.01309
881	6.13525	3.1831506	99.7874	99.2152	7.037358	31.97319
882	6.10748	3.1784281	100.0430	99.4693	7.043224	31.94666
883	6.06732	3.1763008	100.2866	99.7114	7.049305	31.96066
884	6.02974	3.1731571	100.5366	99.9599	7.055598	31.96090
885	5.99331	3.1701075	100.7829	100.2047	7.061709	31.96110
886	5.95762	3.1688994	101.0325	100.4528	7.066788	31.98117
887	5.93027	3.1687510	101.2792	100.6981	7.070283	32.00524
888	5.91366	3.1699040	101.5379	100.9553	7.071764	32.03372
889	5.90749	3.1695633	101.7968	101.2126	7.072718	32.03563
890	5.90227	3.1686896	102.0434	101.4577	7.073827	32.03066
891	5.89392	3.1682684	102.2960	101.7088	7.075093	32.03373
892	5.88537	3.1681508	102.5520	101.9633	7.076228	32.04039
893	5.87900	3.1680270	102.7956	102.2054	7.077094	32.04492
894	5.87369	3.1680271	103.0604	102.4686	7.077764	32.04983
895	5.86879	3.1681202	103.3130	102.7198	7.078334	32.05540
896	5.86494	3.1681513	103.5626	102.9679	7.078804	32.05927
897	5.86221	3.1681204	103.8122	103.2159	7.079167	32.06139
898	5.86019	3.1683002	104.0649	103.4671	7.079332	32.06520
899	5.85918	3.1684490	104.3299	103.7305	7.079387	32.06770
900	5.85898	3.1698125	104.5857	103.9848	7.078710	32.08305
901	5.86327	3.1720131	104.8353	104.2329	7.077036	32.10351
902	5.87217	3.1722549	105.0942	104.4903	7.075805	32.09765
903	5.87875	3.1723169	105.3436	104.7381	7.074957	32.09199
904	5.88209	3.1731291	105.5966	104.9896	7.074125	32.09780
905	5.88583	3.1740407	105.8462	105.2377	7.073191	32.10433
906	5.89074	3.1742453	106.0987	105.4888	7.072478	32.10185
907	5.89377	3.1736749	106.3515	105.7400	7.072400	32.09246
908	5.89155	3.1718336	106.5950	105.9820	7.073638	32.07383
909	5.88113	3.1708667	106.8388	106.2243	7.075446	32.07277
910	5.86803	3.1706562	107.0944	106.4784	7.077197	32.08271
911	5.85842	3.1714994	107.3500	106.7325	7.077965	32.10115
912	5.85372	3.1714065	107.6149	106.9958	7.078607	32.10445
913	5.84892	3.1712021	107.8921	107.2714	7.079319	32.10658
914	5.84311	3.1712270	108.1661	107.5437	7.080039	32.11225
915	5.83896	3.1712581	108.4252	107.8012	7.080546	32.11641
916	5.83628	3.1711715	108.6714	108.0460	7.080931	32.11786
917	5.83462	3.1712583	108.9274	108.3004	7.081100	32.12030
918	5.83361	3.1711221	109.1799	108.5514	7.081303	32.11961
919	5.83189	3.1708060	109.4418	108.8117	7.081688	32.11757
920	5.82775	3.1705334	109.6854	109.0539	7.082354	32.11833
921	5.82219	3.1702050	109.9441	109.3109	7.083225	32.11980
922	5.81552	3.1701742	110.2059	109.5712	7.084081	32.12566
923	5.80987	3.1701619	110.4675	109.8312	7.084801	32.13078
924	5.80532	3.1701125	110.7143	110.0766	7.085401	32.13443
925	5.80169	3.1700816	110.9762	110.3369	7.085877	32.13741
926	5.79901	3.1700507	111.2381	110.5971	7.086234	32.13948
927	5.79674	3.1700198	111.5000	110.8575	7.086540	32.14117
928	5.79396	3.1700199	111.7616	111.1175	7.086894	32.14369
929	5.79149	3.1700696	112.0204	111.3748	7.087183	32.14647
930	5.78811	3.1708383	112.2792	111.6321	7.087212	32.15820
931	5.78457	3.1717435	112.5291	111.8804	7.087187	32.17161
932	5.78372	3.1728905	112.7846	112.1344	7.086702	32.18519
933	5.78604	3.1737090	113.0527	112.4008	7.085991	32.19204
934	5.79028	3.1749493	113.3175	112.6640	7.084821	32.20180
935	5.79659	3.1767356	113.5794	112.9244	7.083107	32.21572
936	5.80598	3.1776351	113.8320	113.1754	7.081471	32.21675
937	5.81547	3.1790062	114.0907	113.4326	7.079578	32.22296
938	5.82380	3.1797322	114.3620	113.7022	7.078166	32.22304
939	5.82876	3.1801232	114.6206	113.9593	7.077350	32.22258
940	5.83123	3.1803963	114.8765	114.2136	7.076905	32.22316
941	5.83133	3.1803715	115.1382	114.4738	7.076911	32.22266
942	5.83002	3.1804461	115.4031	114.7370	7.077042	32.22462
943	5.82850	3.1809116	115.6554	114.9878	7.076995	32.23117
944	5.82764	3.1814579	115.9146	115.2454	7.076824	32.23799
945	5.82820	3.1817931	116.1610	115.4903	7.076586	32.24110
946	5.82906	3.1819484	116.4077	115.7356	7.076403	32.24191
947	5.82982	3.1819733	116.6666	115.9929	7.076302	32.24134
948	5.83032	3.1819733	116.9253	116.2500	7.076245	32.24073
949	5.83068	3.1820168	117.1689	116.4922	7.076183	32.24077
950	5.83088	3.1821907	117.4339	116.7555	7.076074	32.24240
951	5.83164	3.1822777	117.7078	117.0278	7.075940	32.24252
952	5.83254	3.1822778	117.9939	117.3122	7.075833	32.24151
953	5.83305	3.1822779	118.2800	117.5966	7.075776	32.24089
954	5.83325	3.1823090	118.5297	117.8447	7.075741	32.24093
955	5.83330	3.1823401	118.7856	118.0990	7.075724	32.24111
956	5.83330	3.1828864	119.0443	118.3562	7.075446	32.24711
957	5.83462	3.1831348	119.3031	118.6135	7.075159	32.24852
958	5.83638	3.1830976	119.5648	118.8735	7.074963	32.24629
959	5.83740	3.1832777	119.8268	119.1339	7.074750	32.24722
960	5.83861	3.1836130	120.0857	119.3912	7.074430	32.24970
961	5.83962	3.1845257	120.3475	119.6515	7.073835	32.25885
962	5.84119	3.1850101	120.6124	119.9147	7.073395	32.26266
963	5.84048	3.1861962	120.8680	120.1689	7.072872	32.27652
964	5.84174	3.1867242	121.1209	120.4201	7.072446	32.28111
965	5.84467	3.1878981	121.3916	120.6892	7.071477	32.29136
966	5.84932	3.1888982	121.6475	120.9436	7.070385	32.29801
967	5.85352	3.1890535	121.9155	121.2099	7.069788	32.29562
968	5.85544	3.1889293	122.1744	121.4673	7.069619	32.29226
969	5.85473	3.1887182	122.4390	121.7303	7.069823	32.29044
970	5.85160	3.1884140	122.6950	121.9847	7.070377	32.28990
971	5.84634	3.1876563	122.9596	122.2477	7.071430	32.28629
972	5.83800	3.1871782	123.2155	122.5020	7.072723	32.28877
973	5.82926	3.1866815	123.4712	122.7561	7.074076	32.29142
974	5.81961	3.1853155	123.7363	123.0196	7.075995	32.28517
975	5.80300	3.1843471	123.9797	123.2616	7.078576	32.29005
976	5.78286	3.1838570	124.2322	123.5126	7.081350	32.30368
977	5.76606	3.1835282	124.4913	123.7701	7.083625	32.31593
978	5.75299	3.1832801	124.7560	124.0332	7.085392	32.32552
979	5.74296	3.1832368	125.0025	124.2781	7.086673	32.33452
980	5.73651	3.1832245	125.2614	124.5355	7.087492	32.34044
981	5.73303	3.1832557	125.5112	124.7837	7.087916	32.34400
982	5.73101	3.1830137	125.7700	125.0410	7.088300	32.34308
983	5.72854	3.1827965	126.0257	125.2951	7.088728	32.34288
984	5.72517	3.1827097	126.2722	125.5401	7.089201	32.34502
985	5.72224	3.1825546	126.5190	125.7854	7.089653	32.34595
986	5.71972	3.1824368	126.7777	126.0425	7.090036	32.34692
987	5.71746	3.1823748	127.0274	126.2907	7.090357	32.34827
988	5.71574	3.1823439	127.2891	126.5508	7.090594	32.34944
989	5.71413	3.1821640	127.5481	126.8082	7.090895	32.34883
990	5.71176	3.1820089	127.8250	127.0835	7.091279	32.34922
991	5.70914	3.1817670	128.1232	127.3798	7.091740	32.34886
992	5.70531	3.1813140	128.3945	127.6495	7.092462	32.34730
993	5.69922	3.1811031	128.6377	127.8912	7.093340	32.35065
994	5.69282	3.1808674	128.8907	128.1426	7.094270	32.35401
995	5.68703	3.1807372	129.1370	128.3874	7.095068	32.35798
996	5.68225	3.1807063	129.3961	128.6449	7.095689	32.36209
997	5.67842	3.1805575	129.6395	128.8869	7.096252	32.36397
998	5.67470	3.1802535	129.8802	129.1260	7.096883	32.36400
999	5.66936	3.1801295	130.1268	129.3712	7.097621	32.36761
1000	5.66348	3.1798442	130.3763	129.6191	7.098514	32.36992
1001	5.65698	3.1798009	130.6288	129.8701	7.099356	32.37554
1002	5.65180	3.1797080	130.8877	130.1274	7.100060	32.37935
1003	5.64763	3.1796150	131.1345	130.3727	7.100637	32.38219
1004	5.64456	3.1795593	131.3873	130.6240	7.101057	32.38438
1005	5.64230	3.1795284	131.6399	130.8750	7.101362	32.38609
1006	5.64048	3.1794044	131.8958	131.1293	7.101660	32.38630
1007	5.63877	3.1793672	132.1603	131.3922	7.101900	32.38740
1008	5.63737	3.1792246	132.4164	131.6468	7.102157	32.38702
1009	5.63581	3.1791937	132.6660	131.8948	7.102375	32.38805
1010	5.63450	3.1790448	132.9155	132.1428	7.102623	32.38750
1011	5.63294	3.1789829	133.1743	132.4000	7.102856	32.38817
1012	5.63168	3.1789209	133.4332	132.6572	7.103053	32.38856
1013	5.63063	3.1788590	133.6738	132.8964	7.103223	32.38876
1014	5.62962	3.1786357	133.9417	133.1626	7.103472	32.38707
1015	5.62801	3.1785862	134.1822	133.4017	7.103706	32.38794
1016	5.62661	3.1784373	134.4379	133.6558	7.103966	32.38749
1017	5.62454	3.1780156	134.6907	133.9071	7.104452	32.38459
1018	5.62022	3.1776496	134.9374	134.1522	7.105193	32.38449
1019	5.61459	3.1776498	135.1777	134.3911	7.105904	32.38979
1020	5.61012	3.1776189	135.4305	134.6423	7.106488	32.39362
1021	5.60745	3.1775818	135.6712	134.8815	7.106847	32.39565
1022	5.60600	3.1777742	135.9085	135.1174	7.106934	32.39910
1023	5.60584	3.1781651	136.1551	135.3624	7.106753	32.40354
1024	5.60620	3.1781962	136.4048	135.6107	7.106698	32.40343
1025	5.60584	3.1784382	136.6453	135.8497	7.106620	32.40639
1026	5.60469	3.1786182	136.8949	136.0977	7.106676	32.40941
1027	5.60368	3.1785067	137.1508	136.3520	7.106867	32.40899
1028	5.60198	3.1781035	137.3943	136.5940	7.107299	32.40596
1029	5.59740	3.1775887	137.6592	136.8573	7.108150	32.40442
1030	5.59077	3.1770181	137.9454	137.1417	7.109289	32.40422
1031	5.58288	3.1764104	138.2225	137.4171	7.110606	32.40480
1032	5.57440	3.1760508	138.4691	137.6622	7.111867	32.40879
1033	5.56691	3.1758090	138.7063	137.8980	7.112940	32.41314
1034	5.56049	3.1755673	138.9563	138.1464	7.113881	32.41648
1035	5.55487	3.1757163	139.2029	138.3915	7.114514	32.42346
1036	5.55110	3.1758652	139.4494	138.6365	7.114915	32.42865
1037	5.54950	3.1758095	139.6930	138.8786	7.115151	32.42945
1038	5.54749	3.1757476	139.9364	139.1205	7.115442	32.43056
1039	5.54483	3.1757477	140.1832	139.3658	7.115782	32.43301
1040	5.54242	3.1755369	140.4268	139.6079	7.116202	32.43282
1041	5.53901	3.1753820	140.6763	139.8558	7.116718	32.43424
1042	5.53550	3.1753821	140.9230	140.1010	7.117165	32.43750
1043	5.53243	3.1752643	141.1636	140.3401	7.117618	32.43901
1044	5.52907	3.1752024	141.4162	140.5911	7.118079	32.44142
1045	5.52611	3.1752025	141.6570	140.8305	7.118457	32.44416
1046	5.52356	3.1754135	141.9066	141.0785	7.118673	32.44889
1047	5.52085	3.1754074	142.1530	141.3234	7.119022	32.45132
1048	5.51673	3.1755068	142.3966	141.5655	7.119493	32.45629
1049	5.51227	3.1755379	142.6432	141.8106	7.120043	32.46083
1050	5.50776	3.1755938	142.8868	142.0527	7.120587	32.46570
1051	5.50269	3.1756870	143.1398	142.3041	7.121181	32.47152
1052	5.49904	3.1756561	143.3831	142.5459	7.121663	32.47458
1053	5.49703	3.1757616	143.6267	142.7880	7.121865	32.47760
1054	5.49568	3.1760222	143.8735	143.0332	7.121903	32.48173
1055	5.49407	3.1761402	144.1231	143.2814	7.122048	32.48450
1056	5.49097	3.1760534	144.3664	143.5232	7.122491	32.48640
1057	5.48721	3.1758675	144.6100	143.7652	7.123068	32.48780
1058	5.48285	3.1758366	144.8537	144.0074	7.123639	32.49155
1059	5.47944	3.1757002	145.0971	144.2493	7.124146	32.49318
1060	5.47663	3.1754150	145.3438	144.4944	7.124656	32.49253
1061	5.47388	3.1752663	145.5842	144.7334	7.125087	32.49339
1062	5.47102	3.1749625	145.8186	144.9663	7.125613	32.49260
1063	5.46752	3.1747518	146.0625	145.2087	7.126172	32.49348
1064	5.46291	3.1750806	146.2997	145.4445	7.126584	32.50155
1065	5.45975	3.1753846	146.5343	145.6776	7.126825	32.50793
1066	5.45730	3.1755087	146.7869	145.9286	7.127074	32.51159
1067	5.45374	3.1756577	147.0215	146.1617	7.127449	32.51660
1068	5.45009	3.1757818	147.2711	146.4098	7.127849	32.52143
1069	5.44743	3.1758378	147.5299	146.6670	7.128159	32.52450
1070	5.44458	3.1757200	147.7948	146.9303	7.128588	32.52580
1071	5.44022	3.1755713	148.0537	147.1876	7.129221	32.52820
1072	5.43392	3.1754412	148.3033	147.4356	7.130091	32.53271
1073	5.42681	3.1753855	148.5439	147.6748	7.131022	32.53884
1074	5.42095	3.1753546	148.7842	147.9135	7.131782	32.54405
1075	5.41685	3.1752679	149.0338	148.1616	7.132351	32.54692
1076	5.41335	3.1749021	149.2805	148.4068	7.132993	32.54604
1077	5.40745	3.1745426	149.5061	148.6309	7.133934	32.54756
1078	5.39839	3.1744249	149.7585	148.8818	7.135144	32.55488
1079	5.38934	3.1744189	149.9932	149.1150	7.136295	32.56348
1080	5.38254	3.1744190	150.2366	149.3569	7.137159	32.56996
1081	5.37744	3.1743881	150.4866	149.6053	7.137824	32.57443
1082	5.37384	3.1743573	150.7239	149.8411	7.138301	32.57746
1083	5.37149	3.1743325	150.9613	150.0771	7.138616	32.57934
1084	5.36990	3.1742706	151.2110	150.3252	7.138856	32.58006
1085	5.36870	3.1742025	151.4547	150.5674	7.139050	32.58033
1086	5.36770	3.1740910	151.7011	150.8123	7.139241	32.57991
1087	5.36650	3.1740600	151.9448	151.0545	7.139415	32.58061
1088	5.36550	3.1741159	152.1882	151.2964	7.139517	32.58209
1089	5.36400	3.1743021	152.4380	151.5446	7.139613	32.58554
1090	5.36190	3.1745998	152.6843	151.7894	7.139724	32.59084
1091	5.35975	3.1747426	152.9281	152.0317	7.139925	32.59444
1092	5.35755	3.1749349	153.1717	152.2738	7.140106	32.59864
1093	5.35505	3.1750590	153.4123	152.5128	7.140361	32.60236
1094	5.35096	3.1754499	153.6588	152.7578	7.140675	32.61066
1095	5.34541	3.1756919	153.9025	153.0000	7.141252	32.61869
1096	5.33997	3.1759029	154.1397	153.2357	7.141832	32.62627
1097	5.33542	3.1760519	154.3836	153.4781	7.142332	32.63226
1098	5.33188	3.1762691	154.6150	153.7080	7.142669	32.63807
1099	5.32883	3.1766290	154.8584	153.9499	7.142867	32.64501
1100	5.32564	3.1767841	155.0960	154.1860	7.143193	32.64977
1101	5.32224	3.1773860	155.3365	154.4251	7.143306	32.65981
1102	5.31780	3.1776280	155.5678	154.6549	7.143743	32.66678
1103	5.31351	3.1777212	155.8024	154.8880	7.144241	32.67191
1104	5.31076	3.1778144	156.0459	155.1300	7.144543	32.67553
1105	5.30871	3.1779323	156.2861	155.3687	7.144744	32.67875
1106	5.30697	3.1780875	156.5330	155.6141	7.144887	32.68210
1107	5.30557	3.1782055	156.7738	155.8533	7.145006	32.68468
1108	5.30412	3.1786585	157.0081	156.0862	7.144952	32.69114
1109	5.30198	3.1790247	157.2637	156.3402	7.145033	32.69728
1110	5.29973	3.1791551	157.5317	156.6066	7.145253	32.70082
1111	5.29769	3.1794158	157.8028	156.8760	7.145379	32.70565
1112	5.29629	3.1796579	158.0494	157.1210	7.145431	32.70965
1113	5.29479	3.1799310	158.2867	157.3568	7.145480	32.71411
1114	5.29325	3.1802352	158.5272	157.5958	7.145518	32.71897
1115	5.29180	3.1803904	158.7707	157.8378	7.145623	32.72203
1116	5.29090	3.1804774	159.0206	158.0861	7.145696	32.72377
1117	5.28995	3.1805643	159.2671	158.3310	7.145774	32.72557
1118	5.28915	3.1806327	159.5046	158.5671	7.145844	32.72701
1119	5.28866	3.1806327	159.7542	158.8151	7.145913	32.72737
1120	5.28826	3.1806576	159.9919	159.0513	7.145956	32.72793
1121	5.28806	3.1806577	160.2416	159.2994	7.145987	32.72800
1122	5.28786	3.1805709	160.4852	159.5415	7.146064	32.72708
1123	5.28756	3.1806579	160.7379	159.7926	7.146061	32.72824
1124	5.28741	3.1806890	160.9815	160.0347	7.146069	32.72862
1125	5.28741	3.1806891	161.2278	160.2795	7.146075	32.72850
1126	5.28721	3.1806581	161.4806	160.5307	7.146122	32.72822
1127	5.28681	3.1806892	161.7302	160.7788	7.146162	32.72884
1128	5.28656	3.1806893	161.9829	161.0298	7.146199	32.72896
1129	5.28611	3.1807204	162.2297	161.2751	7.146245	32.72963
1130	5.28576	3.1807205	162.4882	161.5320	7.146295	32.72984
1131	5.28531	3.1807888	162.7441	161.7863	7.146321	32.73093
1132	5.28467	3.1809937	162.9907	162.0314	7.146299	32.73378
1133	5.28357	3.1812669	163.2466	162.2856	7.146297	32.73784
1134	5.28222	3.1816021	163.4991	162.5366	7.146294	32.74285
1135	5.28063	3.1818753	163.7459	162.7818	7.146355	32.74740
1136	5.27888	3.1819934	164.0046	163.0389	7.146518	32.75032
1137	5.27753	3.1820866	164.2572	163.2899	7.146644	32.75258
1138	5.27664	3.1821984	164.5006	163.5318	7.146703	32.75461
1139	5.27614	3.1822357	164.7539	163.7834	7.146752	32.75540
1140	5.27554	3.1825089	165.0184	164.0462	7.146687	32.75897
1141	5.27474	3.1827821	165.2682	164.2945	7.146648	32.76274
1142	5.27359	3.1831485	165.5148	164.5395	7.146602	32.76792
1143	5.27225	3.1833907	165.7552	164.7785	7.146648	32.77187
1144	5.27065	3.1835708	165.9990	165.0208	7.146758	32.77537
1145	5.26921	3.1836392	166.2456	165.2657	7.146910	32.77744
1146	5.26816	3.1836951	166.4859	165.5046	7.147018	32.77898
1147	5.26751	3.1837883	166.7418	165.7588	7.147056	32.78055
1148	5.26701	3.1839374	166.9945	166.0100	7.147045	32.78262
1149	5.26651	3.1840306	167.2471	166.2609	7.147064	32.78404
1150	5.26606	3.1841487	167.5211	166.5332	7.147063	32.78569
1151	5.26576	3.1842419	167.7953	166.8057	7.147057	32.78691
1152	5.26527	3.1842420	168.0540	167.0627	7.147126	32.78727
1153	5.26502	3.1843103	168.3037	167.3109	7.147127	32.78817
1154	5.26487	3.1843353	168.5534	167.5590	7.147138	32.78848
1155	5.26482	3.1843912	168.8060	167.8100	7.147121	32.78904
1156	5.26482	3.1843913	169.0708	168.0731	7.147127	32.78891
1157	5.26482	3.1844224	169.3234	168.3241	7.147116	32.78914
1158	5.26472	3.1844846	169.5825	168.5816	7.147101	32.78982
1159	5.26477	3.1848820	169.8412	168.8387	7.146888	32.79417
1160	5.26477	3.1851429	170.1031	169.0989	7.146754	32.79702
1161	5.26497	3.1853044	170.3587	169.3530	7.146649	32.79854
1162	5.26512	3.1854597	170.6084	169.6011	7.146552	32.80004
1163	5.26517	3.1856709	170.8669	169.8580	7.146439	32.80227
1164	5.26532	3.1857580	171.1230	170.1124	7.146379	32.80299
1165	5.26562	3.1858512	171.3759	170.3637	7.146297	32.80364
1166	5.26576	3.1858823	171.6313	170.6175	7.146268	32.80372
1167	5.26571	3.1859755	171.8812	170.8658	7.146230	32.80471
1168	5.26566	3.1860439	172.1337	171.1167	7.146206	32.80541
1169	5.26562	3.1860937	172.3895	171.3709	7.146191	32.80590
1170	5.26581	3.1861558	172.6329	171.6128	7.146138	32.80629
1171	5.26562	3.1861870	172.8857	171.8640	7.146153	32.80672
1172	5.26576	3.1862492	173.1386	172.1152	7.146106	32.80716
1173	5.26581	3.1862803	173.3941	172.3692	7.146089	32.80734
1174	5.26586	3.1863052	173.6498	172.6232	7.146076	32.80744
1175	5.26601	3.1863612	173.8905	172.8624	7.146032	32.80782
1176	5.26606	3.1863985	174.1401	173.1105	7.146012	32.80807
1177	5.26616	3.1864607	174.3899	173.3587	7.145972	32.80856
1178	5.26621	3.1865788	174.6367	173.6038	7.145908	32.80973
1179	5.26626	3.1866720	174.8800	173.8456	7.145858	32.81063
1180	5.26641	3.1867652	175.1297	174.0938	7.145795	32.81142
1181	5.26691	3.1869454	175.3792	174.3417	7.145641	32.81286
1182	5.26746	3.1870076	175.6474	174.6082	7.145545	32.81290
1183	5.26781	3.1870387	175.9425	174.9014	7.145491	32.81277
1184	5.26821	3.1870078	176.2472	175.2042	7.145464	32.81187
1185	5.26831	3.1870078	176.5212	175.4765	7.145458	32.81164
1186	5.26826	3.1870079	176.7646	175.7183	7.145470	32.81157
1187	5.26831	3.1870390	176.9930	175.9452	7.145452	32.81176
1188	5.26826	3.1871012	177.2125	176.1633	7.145430	32.81241
1189	5.26836	3.1872814	177.4467	176.3961	7.145327	32.81425
1190	5.26876	3.1873746	177.7026	176.6503	7.145232	32.81480
1191	5.26901	3.1873933	177.9825	176.9285	7.145197	32.81463
1192	5.26916	3.1874617	178.2536	177.1978	7.145148	32.81513
1193	5.26945	3.1875239	178.5153	177.4579	7.145083	32.81541
1194	5.26960	3.1875551	178.7621	177.7031	7.145053	32.81550
1195	5.26960	3.1875862	179.0084	177.9479	7.145042	32.81573
1196	5.26970	3.1876484	179.2556	178.1935	7.145002	32.81622
1197	5.26970	3.1877665	179.5047	178.4410	7.144945	32.81744
1198	5.26970	3.1878287	179.7637	178.6983	7.144918	32.81802
1199	5.26970	3.1879033	180.0164	178.9494	7.144884	32.81875
1200	5.26980	3.1879220	180.2754	179.2068	7.144867	32.81874
1201	5.26980	3.1878600	180.5187	179.4485	7.144906	32.81791
1202	5.26911	3.1878600	180.7622	179.6905	7.145000	32.81847
1203	5.26816	3.1880092	181.0089	179.9357	7.145045	32.82098
1204	5.26781	3.1882515	181.2524	180.1776	7.144965	32.82396
1205	5.26766	3.1885311	181.4900	180.4136	7.144839	32.82718
1206	5.26746	3.1885871	181.7367	180.6588	7.144840	32.82789
1207	5.26676	3.1886120	181.9863	180.9068	7.144921	32.82874
1208	5.26606	3.1887115	182.2268	181.1458	7.144961	32.83044
1209	5.26562	3.1887737	182.4612	181.3787	7.144990	32.83147
1210	5.26562	3.1888608	182.7139	181.6298	7.144949	32.83234
1211	5.26552	3.1889540	182.9576	181.8719	7.144918	32.83338
1212	5.26557	3.1890162	183.1980	182.1107	7.144884	32.83392
1213	5.26571	3.1892586	183.4446	182.3558	7.144741	32.83641
1214	5.26591	3.1893208	183.6943	182.6039	7.144688	32.83680
1215	5.26626	3.1893146	183.9532	182.8612	7.144653	32.83626
1216	5.26656	3.1895011	184.1996	183.1060	7.144521	32.83798
1217	5.26676	3.1897124	184.4492	183.3540	7.144389	32.84007
1218	5.26726	3.1898988	184.7023	183.6054	7.144232	32.84158
1219	5.26796	3.1900480	184.9579	183.8595	7.144070	32.84247
1220	5.26866	3.1902034	185.2138	184.1137	7.143905	32.84343
1221	5.26960	3.1903837	185.4600	184.3584	7.143694	32.84444
1222	5.27050	3.1904769	185.7188	184.6155	7.143537	32.84449
1223	5.27145	3.1905391	185.9776	184.8726	7.143390	32.84414
1224	5.27180	3.1905641	186.2456	185.1389	7.143339	32.84395
1225	5.27225	3.1906884	186.4893	185.3811	7.143222	32.84481
1226	5.27265	3.1906263	186.7452	185.6353	7.143211	32.84358
1227	5.27294	3.1909619	186.9916	185.8802	7.142999	32.84700
1228	5.27334	3.1910863	187.2475	186.1344	7.142888	32.84790
1229	5.27369	3.1911423	187.4939	186.3793	7.142820	32.84807
1230	5.27404	3.1911734	187.7406	186.6243	7.142765	32.84796
1231	5.27429	3.1912791	187.9935	186.8757	7.142683	32.84880
1232	5.27454	3.1913600	188.2551	187.1355	7.142614	32.84934
1233	5.27404	3.1913912	188.5383	187.4170	7.142667	32.85005
1234	5.27285	3.1912048	188.8214	187.6982	7.142924	32.84896
1235	5.27055	3.1907203	189.0772	187.9524	7.143479	32.84555
1236	5.26611	3.1911740	189.3424	188.2159	7.143802	32.85494
1237	5.26337	3.1926966	189.5979	188.4698	7.143337	32.87488
1238	5.26552	3.1929701	189.8475	188.7178	7.142926	32.87577
1239	5.26786	3.1931256	190.1125	188.9811	7.142554	32.87511
1240	5.26965	3.1932997	190.3770	189.2439	7.142241	32.87521
1241	5.27130	3.1935173	190.6361	189.5014	7.141923	32.87595
1242	5.27250	3.1936417	190.9101	189.7735	7.141712	32.87606
1243	5.27334	3.1937909	191.1781	190.0399	7.141531	32.87679
1244	5.27394	3.1939153	191.4398	190.2998	7.141395	32.87750
1245	5.27444	3.1940086	191.7106	190.5690	7.141289	32.87794
1246	5.27484	3.1944003	191.9725	190.8292	7.141035	32.88188
1247	5.27579	3.1945869	192.2435	191.0984	7.140822	32.88295
1248	5.27639	3.1946491	192.5175	191.3707	7.140720	32.88293
1249	5.27664	3.1948419	192.7794	191.6309	7.140591	32.88476
1250	5.27664	3.1948606	193.0352	191.8850	7.140587	32.88484
1251	5.27693	3.1949229	193.3002	192.1483	7.140522	32.88513
1252	5.27708	3.1949230	193.5650	192.4114	7.140510	32.88485
1253	5.27698	3.1949230	193.8296	192.6744	7.140528	32.88482
1254	5.27669	3.1949231	194.0916	192.9347	7.140572	32.88498
1255	5.27649	3.1949232	194.3564	193.1977	7.140603	32.88505
1256	5.27614	3.1950725	194.6272	193.4668	7.140574	32.88696
1257	5.27594	3.1951658	194.9046	193.7424	7.140555	32.88808
1258	5.27584	3.1954892	195.1693	194.0054	7.140401	32.89173
1259	5.27594	3.1956198	195.4374	194.2718	7.140325	32.89299
1260	5.27594	3.1957443	195.6991	194.5318	7.140264	32.89428
1261	5.27579	3.1958065	195.9672	194.7982	7.140256	32.89501
1262	5.27569	3.1958377	196.2473	195.0764	7.140258	32.89532
1263	5.27574	3.1959248	196.5090	195.3365	7.140212	32.89614
1264	5.27584	3.1958689	196.7831	195.6089	7.140235	32.89526
1265	5.27574	3.1959871	197.0508	195.8748	7.140191	32.89658
1266	5.27604	3.1960183	197.3096	196.1319	7.140143	32.89651
1267	5.27609	3.1960059	197.5656	196.3863	7.140149	32.89619
1268	5.27624	3.1960806	197.8336	196.6526	7.140096	32.89676
1269	5.27629	3.1961118	198.0953	196.9125	7.140079	32.89694
1270	5.27639	3.1961430	198.3632	197.1788	7.140056	32.89707
1271	5.27644	3.1961741	198.6217	197.4356	7.140040	32.89724
1272	5.27629	3.1964167	198.8836	197.6957	7.139935	32.90003
1273	5.27604	3.1965349	199.1609	197.9713	7.139909	32.90148
1274	5.27534	3.1967216	199.4472	198.2557	7.139904	32.90415
1275	5.27494	3.1969642	199.7089	198.5158	7.139830	32.90718
1276	5.27484	3.1974244	199.9736	198.7788	7.139603	32.91240
1277	5.27449	3.1976483	200.2326	199.0361	7.139533	32.91517
1278	5.27394	3.1977852	200.4915	199.2933	7.139535	32.91714
1279	5.27349	3.1978475	200.7530	199.5531	7.139564	32.91816
1280	5.27324	3.1979098	201.0180	199.8164	7.139568	32.91898
1281	5.27314	3.1980031	201.2799	200.0766	7.139537	32.92002
1282	5.27304	3.1980343	201.5539	200.3488	7.139539	32.92033
1283	5.27290	3.1981526	201.8219	200.6152	7.139501	32.92170
1284	5.27270	3.1982770	202.0835	200.8750	7.139465	32.92318
1285	5.27275	3.1984264	202.3514	201.1412	7.139385	32.92470
1286	5.27285	3.1985508	202.6195	201.4075	7.139312	32.92589
1287	5.27280	3.1986131	202.8936	201.6799	7.139292	32.92652
1288	5.27319	3.1989802	203.1613	201.9459	7.139051	32.93018
1289	5.27339	3.1992850	203.4265	202.2093	7.138869	32.93333
1290	5.27374	3.1993784	203.6971	202.4782	7.138782	32.93392
1291	5.27389	3.1995588	203.9650	202.7443	7.138672	32.93569
1292	5.27424	3.1997082	204.2239	203.0016	7.138555	32.93693
1293	5.27444	3.1998949	204.4857	203.2617	7.138436	32.93873
1294	5.27444	3.2000194	204.7505	203.5248	7.138375	32.94002
1295	5.27439	3.2002309	205.0122	203.7847	7.138274	32.94235
1296	5.27419	3.2003243	205.2773	204.0481	7.138256	32.94348
1297	5.27404	3.2004177	205.5360	204.3052	7.138230	32.94456
1298	5.27374	3.2005360	205.8009	204.5684	7.138211	32.94608
1299	5.27349	3.2007476	206.0658	204.8315	7.138135	32.94860
1300	5.27299	3.2009343	206.3246	205.0887	7.138104	32.95109
1301	5.27250	3.2012081	206.5895	205.3519	7.138026	32.95458
1302	5.27210	3.2013886	206.8513	205.6119	7.137986	32.95690
1303	5.27160	3.2014509	207.1252	205.8841	7.138022	32.95796
1304	5.27145	3.2014821	207.3904	206.1476	7.138030	32.95833
1305	5.27120	3.2016066	207.6490	206.4045	7.138001	32.95987
1306	5.27105	3.2017560	207.9137	206.6674	7.137946	32.96159
1307	5.27115	3.2017872	208.1756	206.9276	7.137923	32.96172
1308	5.27105	3.2018371	208.4345	207.1848	7.137915	32.96226
1309	5.27105	3.2020300	208.6991	207.4477	7.137817	32.96433
1310	5.27130	3.2021235	208.9552	207.7021	7.137742	32.96502
1311	5.27150	3.2022791	209.2258	207.9710	7.137640	32.96646
1312	5.27155	3.2023663	209.5061	208.2494	7.137594	32.96727
1313	5.27160	3.2024286	209.7952	208.5367	7.137561	32.96779
1314	5.27135	3.2025220	210.0754	208.8151	7.137549	32.96896
1315	5.27075	3.2025532	210.3463	209.0842	7.137613	32.96977
1316	5.27005	3.2025844	210.5958	209.3321	7.137690	32.97069
1317	5.26930	3.2026156	210.8456	209.5802	7.137774	32.97166
1318	5.26896	3.2026468	211.1107	209.8436	7.137807	32.97222
1319	5.26856	3.2026718	211.3633	210.0946	7.137850	32.97277
1320	5.26846	3.2026719	211.6160	210.3457	7.137868	32.97275
1321	5.26831	3.2026470	211.8808	210.6088	7.137906	32.97248
1322	5.26791	3.2026471	212.1334	210.8597	7.137962	32.97275
1323	5.26731	3.2027654	212.3984	211.1230	7.137981	32.97455
1324	5.26696	3.2028277	212.6633	211.3862	7.137997	32.97548
1325	5.26681	3.2029834	212.9130	211.6342	7.137939	32.97728
1326	5.26666	3.2031950	213.1868	211.9063	7.137850	32.97970
1327	5.26691	3.2033756	213.4519	212.1696	7.137729	32.98138
1328	5.26741	3.2037117	213.7107	212.4267	7.137492	32.98460
1329	5.26826	3.2038051	213.9723	212.6866	7.137341	32.98470
1330	5.26891	3.2038674	214.2310	212.9436	7.137233	32.98465
1331	5.26925	3.2038986	214.4961	213.2070	7.137178	32.98453
1332	5.26960	3.2038987	214.7486	213.4579	7.137140	32.98406
1333	5.26970	3.2039921	215.0134	213.7209	7.137084	32.98490
1334	5.26970	3.2039922	215.2756	213.9814	7.137090	32.98477
1335	5.26970	3.2040172	215.5313	214.2354	7.137082	32.98492
1336	5.26960	3.2040795	215.7838	214.4863	7.137068	32.98561
1337	5.26970	3.2040485	216.0457	214.7465	7.137078	32.98502
1338	5.26960	3.2041108	216.2953	214.9945	7.137063	32.98571
1339	5.26945	3.2041420	216.5603	215.2577	7.137071	32.98608
1340	5.26940	3.2041732	216.8159	215.5116	7.137067	32.98636
1341	5.26925	3.2042542	217.0686	215.7627	7.137048	32.98730
1342	5.26916	3.2043600	217.3244	216.0168	7.137010	32.98848
1343	5.26916	3.2044472	217.5772	216.2680	7.136969	32.98935
1344	5.26911	3.2044784	217.8208	216.5100	7.136964	32.98964
1345	5.26891	3.2045096	218.0824	216.7699	7.136979	32.99006
1346	5.26896	3.2045097	218.3381	217.0239	7.136978	32.98988
1347	5.26866	3.2045409	218.5817	217.2659	7.137005	32.99041
1348	5.26871	3.2045721	218.8467	217.5292	7.136988	32.99059
1349	5.26866	3.2045722	219.0932	217.7741	7.137000	32.99051
1350	5.26856	3.2046034	219.3433	218.0225	7.137002	32.99084
1351	5.26851	3.2046346	219.6047	218.2822	7.136998	32.99112
1352	5.26806	3.2046347	219.8911	218.5667	7.137061	32.99142
1353	5.26756	3.2046472	220.1590	218.8329	7.137123	32.99192
1354	5.26706	3.2046348	220.4176	219.0898	7.137198	32.99214
1355	5.26656	3.2046038	220.6642	219.3347	7.137283	32.99215
1356	5.26606	3.2046350	220.9108	219.5797	7.137335	32.99288
1357	5.26571	3.2046040	221.1606	219.8279	7.137401	32.99274
1358	5.26542	3.2046663	221.4072	220.0729	7.137411	32.99363
1359	5.26497	3.2046352	221.6568	220.3209	7.137490	32.99359
1360	5.26457	3.2046353	221.9125	220.5748	7.137546	32.99386
1361	5.26407	3.2046665	222.1619	220.8226	7.137598	32.99458
1362	5.26392	3.2046666	222.4119	221.0710	7.137623	32.99460
1363	5.26372	3.2046978	222.6615	221.3190	7.137637	32.99503
1364	5.26352	3.2048473	222.9111	221.5669	7.137588	32.99681
1365	5.26337	3.2049656	223.1548	221.8090	7.137549	32.99818
1366	5.26322	3.2051524	223.4012	222.0538	7.137473	33.00034
1367	5.26332	3.2052147	223.6478	222.2988	7.137433	33.00083
1368	5.26332	3.2053082	223.9037	222.5530	7.137389	33.00177
1369	5.26347	3.2053082	224.1624	222.8100	7.137376	33.00150
1370	5.26357	3.2053394	224.4149	223.0609	7.137353	33.00163
1371	5.26362	3.2053706	224.6618	223.3061	7.137336	33.00181
1372	5.26367	3.2053707	224.9083	223.5510	7.137335	33.00164
1373	5.26362	3.2053957	225.1579	223.7989	7.137334	33.00185
1374	5.26362	3.2054580	225.4048	224.0442	7.137306	33.00244
1375	5.26377	3.2054581	225.6632	224.3010	7.137294	33.00216
1376	5.26382	3.2055204	225.9161	224.5521	7.137260	33.00270
1377	5.26387	3.2055827	226.1686	224.8030	7.137226	33.00324
1378	5.26402	3.2057073	226.4090	225.0418	7.137146	33.00439
1379	5.26437	3.2059190	226.6589	225.2901	7.136995	33.00634
1380	5.26502	3.2061307	226.9148	225.5443	7.136806	33.00799
1381	5.26576	3.2061930	227.1583	225.7862	7.136684	33.00784
1382	5.26641	3.2062242	227.4048	226.0311	7.136592	33.00744
1383	5.26691	3.2062866	227.6483	226.2729	7.136501	33.00754
1384	5.26706	3.2062866	227.8981	226.5211	7.136488	33.00727
1385	5.26736	3.2063489	228.1357	226.7572	7.136423	33.00757
1386	5.26741	3.2063490	228.3821	227.0019	7.136422	33.00739
1387	5.26756	3.2063180	228.6104	227.2287	7.136426	33.00678
1388	5.26761	3.2064114	228.8508	227.4676	7.136375	33.00768
1389	5.26761	3.2064239	229.0947	227.7098	7.136374	33.00770
1390	5.26756	3.2064427	229.3350	227.9485	7.136376	33.00784
1391	5.26766	3.2064677	229.6029	228.2147	7.136356	33.00790
1392	5.26771	3.2064678	229.8829	228.4928	7.136356	33.00771
1393	5.26761	3.2064678	230.1572	228.7653	7.136375	33.00767
1394	5.26756	3.2064990	230.4066	229.0131	7.136371	33.00795
1395	5.26741	3.2065302	230.6562	229.2610	7.136379	33.00833
1396	5.26736	3.2065303	230.8939	229.4972	7.136390	33.00826
1397	5.26731	3.2065615	231.1374	229.7391	7.136386	33.00855
1398	5.26726	3.2065616	231.3777	229.9778	7.136397	33.00848
1399	5.26716	3.2065617	231.6304	230.2287	7.136416	33.00845
1400	5.26701	3.2066240	231.8770	230.4737	7.136407	33.00919
1401	5.26691	3.2066179	232.1208	230.7160	7.136428	33.00909
1402	5.26676	3.2066553	232.3675	230.9610	7.136433	33.00955
1403	5.26676	3.2066554	232.6141	231.2060	7.136439	33.00942
1404	5.26646	3.2066243	232.8605	231.4508	7.136499	33.00924
1405	5.26641	3.2066555	233.1041	231.6927	7.136494	33.00953
1406	5.26626	3.2066867	233.3476	231.9346	7.136502	33.00991
1407	5.26611	3.2066868	233.5942	232.1796	7.136526	33.00993
1408	5.26581	3.2067180	233.8377	232.4215	7.136553	33.01046
1409	5.26547	3.2067492	234.0752	232.6574	7.136586	33.01104
1410	5.26527	3.2060147	234.3249	232.9055	7.137010	33.00274
1411	5.26502	3.2068988	234.5715	233.1505	7.136573	33.01295
1412	5.26512	3.2069922	234.8181	233.3954	7.136517	33.01379
1413	5.26507	3.2070546	235.0646	233.6402	7.136495	33.01443
1414	5.26512	3.2071044	235.3081	233.8821	7.136468	33.01483
1415	5.26537	3.2071481	235.5580	234.1304	7.136419	33.01496
1416	5.26542	3.2071482	235.8045	234.3753	7.136419	33.01479
1417	5.26562	3.2072043	236.0480	234.6171	7.136369	33.01511
1418	5.26562	3.2072044	236.2978	234.8653	7.136375	33.01499
1419	5.26571	3.2073289	236.5473	235.1132	7.136302	33.01618
1420	5.26586	3.2073602	236.8000	235.3641	7.136272	33.01627
1421	5.26586	3.2073914	237.0404	235.6030	7.136261	33.01650
1422	5.26601	3.2074226	237.2932	235.8541	7.136231	33.01659
1423	5.26621	3.2074538	237.5433	236.1025	7.136195	33.01662
1424	5.26641	3.2074850	237.7774	236.3351	7.136159	33.01667
1425	5.26651	3.2075162	238.0181	236.5741	7.136135	33.01680
1426	5.26651	3.2075225	238.2643	236.8188	7.136138	33.01675
1427	5.26666	3.2076346	238.4986	237.0515	7.136064	33.01777
1428	5.26676	3.2077281	238.7362	237.2875	7.136007	33.01862
1429	5.26701	3.2077593	238.9799	237.5296	7.135965	33.01861
1430	5.26721	3.2078216	239.2202	237.7683	7.135912	33.01900
1431	5.26741	3.2079089	239.4884	238.0347	7.135847	33.01967
1432	5.26771	3.2079401	239.7623	238.3068	7.135799	33.01959
1433	5.26791	3.2080024	240.0303	238.5730	7.135747	33.01998
1434	5.26816	3.2080336	240.2770	238.8181	7.135704	33.01996
1435	5.26841	3.2080960	240.5265	239.0659	7.135645	33.02031
1436	5.26841	3.2081272	240.7580	239.2959	7.135634	33.02055
1437	5.26856	3.2081272	241.0042	239.5404	7.135621	33.02028
1438	5.26866	3.2081584	241.2542	239.7888	7.135598	33.02041
1439	5.26886	3.2081398	241.5009	240.0338	7.135588	33.01988
1440	5.26891	3.2083392	241.7475	240.2788	7.135481	33.02198
1441	5.26921	3.2084015	241.9969	240.5266	7.135416	33.02228
1442	5.26975	3.2084327	242.2498	240.7777	7.135336	33.02197
1443	5.26980	3.2084639	242.4963	241.0226	7.135319	33.02215
1444	5.27005	3.2085574	242.7458	241.2704	7.135243	33.02285
1445	5.27030	3.2086135	242.9924	241.5154	7.135188	33.02312
1446	5.27070	3.2086447	243.2390	241.7604	7.135127	33.02296
1447	5.27095	3.2088005	243.4916	242.0113	7.135018	33.02437
1448	5.27135	3.2088939	243.7383	242.2563	7.134924	33.02492
1449	5.27170	3.2089812	243.9791	242.4955	7.134839	33.02545
1450	5.27200	3.2090124	244.2284	242.7432	7.134790	33.02539
1451	5.27230	3.2090436	244.4781	242.9912	7.134742	33.02532
1452	5.27245	3.2091433	244.7371	243.2485	7.134676	33.02618
1453	5.27270	3.2091683	244.9805	243.4902	7.134636	33.02610
1454	5.27265	3.2092306	245.2300	243.7381	7.134615	33.02674
1455	5.27280	3.2092619	245.4828	243.9892	7.134586	33.02682
1456	5.27285	3.2092931	245.7200	244.2249	7.134568	33.02701
1457	5.27294	3.2093803	245.9762	244.4793	7.134515	33.02778
1458	5.27304	3.2094427	246.2255	244.7269	7.134475	33.02827
1459	5.27314	3.2095050	246.4783	244.9781	7.134435	33.02876
1460	5.27314	3.2095985	246.7341	245.2321	7.134391	33.02970
1461	5.27319	3.2096297	246.9773	245.4738	7.134373	33.02988
1462	5.27309	3.2096609	247.2300	245.7247	7.134375	33.03021
1463	5.27304	3.2097482	247.4801	245.9732	7.134341	33.03113
1464	5.27309	3.2098728	247.7264	246.2178	7.134273	33.03238
1465	5.27309	3.2099663	247.9762	246.4659	7.134229	33.03332
1466	5.27314	3.2101096	248.2227	246.7108	7.134152	33.03479
1467	5.27349	3.2101782	248.4571	246.9436	7.134077	33.03511
1468	5.27394	3.2102717	248.7007	247.1855	7.133976	33.03561
1469	5.27414	3.2104275	248.9411	247.4244	7.133873	33.03707
1470	5.27444	3.2105459	249.2090	247.6905	7.133779	33.03800
1471	5.27464	3.2106083	249.4678	247.9476	7.133726	33.03838
1472	5.27479	3.2106395	249.7298	248.2078	7.133697	33.03846
1473	5.27479	3.2106707	249.9856	248.4619	7.133686	33.03869
1474	5.27484	3.2107019	250.2317	248.7064	7.133669	33.03888
1475	5.27494	3.2107954	250.4633	248.9364	7.133612	33.03973
1476	5.27514	3.2108204	250.7038	249.1753	7.133579	33.03970
1477	5.27534	3.2109139	250.9504	249.4202	7.133510	33.04045
1478	5.27544	3.2109763	251.2000	249.6682	7.133470	33.04093
1479	5.27569	3.2111943	251.4435	249.9100	7.133327	33.04306
1480	5.27604	3.2113750	251.6962	250.1611	7.133193	33.04465
1481	5.27649	3.2114374	251.9491	250.4122	7.133109	33.04479
1482	5.27688	3.2114686	252.1894	250.6509	7.133048	33.04463
1483	5.27708	3.2115310	252.4268	250.8867	7.132995	33.04503
1484	5.27723	3.2115622	252.6247	251.0833	7.132964	33.04514
1485	5.27743	3.2115622	252.7466	251.2044	7.132942	33.04488
1486	5.27763	3.2115871	252.7650	251.2226	7.132904	33.04496
1487	5.27753	3.2115622	252.7316	251.1895	7.132929	33.04479
1488	5.27758	3.2115622	252.6891	251.1473	7.132922	33.04477
1489	5.27778	3.2116494	252.6644	251.1228	7.132849	33.04558
1490	5.27813	3.2116183	252.6650	251.1234	7.132822	33.04488
1491	5.27818	3.2116494	252.6895	251.1477	7.132800	33.04517
1492	5.27843	3.2116494	252.7138	251.1718	7.132769	33.04491
1493	5.27858	3.2116183	252.7078	251.1658	7.132767	33.04441
1494	5.27853	3.2116183	252.6958	251.1540	7.132773	33.04447
1495	5.27838	3.2115996	252.6742	251.1324	7.132801	33.04441
1496	5.27828	3.2116183	252.6622	251.1206	7.132803	33.04473
1497	5.27828	3.2116183	252.6561	251.1145	7.132803	33.04473
1498	5.27828	3.2115871	252.6625	251.1208	7.132820	33.04437
1499	5.27823	3.2115871	252.6656	251.1240	7.132826	33.04442
1500	5.27808	3.2116183	252.6750	251.1333	7.132829	33.04492
1501	5.27818	3.2116183	252.6659	251.1242	7.132816	33.04483
1502	5.27813	3.2116183	252.6600	251.1184	7.132822	33.04488
1503	5.27823	3.2116494	252.6569	251.1153	7.132793	33.04514
1504	5.27823	3.2116183	252.6660	251.1243	7.132810	33.04478
1505	5.27838	3.2116494	252.6661	251.1244	7.132774	33.04499
1506	5.27838	3.2116183	252.6779	251.1362	7.132791	33.04462
1507	5.27843	3.2116183	252.6845	251.1427	7.132785	33.04457
1508	5.27838	3.2116494	252.6847	251.1429	7.132775	33.04498
1509	5.27848	3.2116619	252.6875	251.1457	7.132756	33.04502
1510	5.27858	3.2116805	252.6845	251.1427	7.132733	33.04513
1511	5.27868	3.2116805	252.6817	251.1399	7.132720	33.04504
1512	5.27893	3.2116494	252.6847	251.1429	7.132706	33.04444
1513	5.27888	3.2116494	252.6849	251.1431	7.132712	33.04448
1514	5.27878	3.2116494	252.6728	251.1311	7.132724	33.04459
1515	5.27863	3.2116494	252.6274	251.0860	7.132742	33.04476
1516	5.27858	3.2116493	252.5116	250.9710	7.132746	33.04486
1517	5.27873	3.2118050	252.3778	250.8381	7.132641	33.04656
1518	5.27938	3.2118050	252.2319	250.6931	7.132556	33.04599
1519	5.28003	3.2118049	252.0767	250.5389	7.132471	33.04543
1520	5.28028	3.2117737	251.9246	250.3879	7.132453	33.04490
1521	5.28033	3.2117114	251.7633	250.2277	7.132476	33.04422
1522	5.28023	3.2117736	251.6085	250.0739	7.132452	33.04511
1523	5.28043	3.2117736	251.4412	249.9077	7.132423	33.04500
1524	5.28063	3.2117611	251.2677	249.7354	7.132400	33.04474
1525	5.28077	3.2117112	251.0941	249.5630	7.132404	33.04411
1526	5.28072	3.2116488	250.9177	249.3878	7.132440	33.04354
1527	5.28067	3.2116176	250.7322	249.2035	7.132458	33.04332
1528	5.28053	3.2115304	250.5436	249.0162	7.132519	33.04257
1529	5.28033	3.2114369	250.3609	248.8347	7.132590	33.04179
1530	5.28008	3.2113123	250.1783	248.6533	7.132684	33.04071
1531	5.27963	3.2112811	249.9958	248.4720	7.132753	33.04088
1532	5.27943	3.2113121	249.7981	248.2756	7.132756	33.04153
1533	5.27938	3.2112186	249.5973	248.0762	7.132808	33.04061
1534	5.27918	3.2111625	249.3936	247.8738	7.132858	33.04027
1535	5.27908	3.2110690	249.1775	247.6592	7.132916	33.03941
1536	5.27863	3.2109755	248.9677	247.4508	7.133017	33.03889
1537	5.27853	3.2109132	248.7550	247.2396	7.133058	33.03838
1538	5.27833	3.2108882	248.5448	247.0307	7.133092	33.03840
1539	5.27808	3.2108196	248.3348	246.8221	7.133155	33.03797
1540	5.27808	3.2107012	248.1219	246.6106	7.133213	33.03672
1541	5.27773	3.2106389	247.9059	246.3961	7.133285	33.03646
1542	5.27758	3.2105765	247.6897	246.1814	7.133332	33.03601
1543	5.27738	3.2104519	247.4829	245.9759	7.133419	33.03488
1544	5.27718	3.2104519	247.2637	245.7582	7.133439	33.03519
1545	5.27693	3.2103335	247.0540	245.5499	7.133529	33.03419
1546	5.27683	3.2102711	246.8411	245.3384	7.133570	33.03368
1547	5.27659	3.2100842	246.6314	245.1301	7.133696	33.03190
1548	5.27619	3.2100281	246.4273	244.9274	7.133772	33.03175
1549	5.27584	3.2099969	246.2112	244.7127	7.133827	33.03185
1550	5.27569	3.2099034	246.0012	244.5041	7.133891	33.03103
1551	5.27564	3.2099034	245.7883	244.2926	7.133892	33.03119
1552	5.27559	3.2098223	245.5660	244.0718	7.133937	33.03042
1553	5.27554	3.2097475	245.3499	243.8572	7.133978	33.02973
1554	5.27534	3.2096603	245.1311	243.6398	7.134045	33.02904
1555	5.27529	3.2095979	244.9122	243.4224	7.134079	33.02848
1556	5.27524	3.2095667	244.6870	243.1987	7.134097	33.02829
1557	5.27509	3.2095044	244.4619	242.9751	7.134144	33.02784
1558	5.27504	3.2094420	244.2335	242.7482	7.134178	33.02729
1559	5.27504	3.2093797	244.0083	242.5245	7.134206	33.02669
1560	5.27489	3.2093485	243.7771	242.2949	7.134236	33.02660
1561	5.27489	3.2092924	243.5491	242.0684	7.134261	33.02607
1562	5.27464	3.2092300	243.3174	241.8383	7.134320	33.02572
1563	5.27454	3.2091988	243.0867	241.6091	7.134344	33.02558
1564	5.27459	3.2091365	242.8582	241.3821	7.134366	33.02493
1565	5.27439	3.2090741	242.6302	241.1556	7.134419	33.02453
1566	5.27439	3.2090118	242.4050	240.9319	7.134447	33.02393
1567	5.27424	3.2089557	242.1798	240.7082	7.134491	33.02355
1568	5.27399	3.2088934	241.9545	240.4845	7.134550	33.02319
1569	5.27379	3.2088310	241.7203	240.2518	7.134603	33.02280
1570	5.27369	3.2087687	241.4952	240.0282	7.134644	33.02229
1571	5.27329	3.2087063	241.2733	239.8077	7.134722	33.02209
1572	5.27299	3.2086440	241.0543	239.5902	7.134788	33.02178
1573	5.27275	3.2085256	240.8227	239.3602	7.134877	33.02079
1574	5.27225	3.2085256	240.5947	239.1337	7.134935	33.02139
1575	5.27210	3.2084632	240.3728	238.9132	7.134982	33.02094
1576	5.27200	3.2084009	240.1440	238.6860	7.135022	33.02044
1577	5.27175	3.2083697	239.9099	238.4534	7.135065	33.02045
1578	5.27155	3.2083074	239.6790	238.2240	7.135118	33.02005
1579	5.27135	3.2082014	239.4567	238.0032	7.135194	33.01914
1580	5.27105	3.2081889	239.2071	237.7553	7.135233	33.01942
1581	5.27075	3.2081577	238.9576	237.5075	7.135281	33.01948
1582	5.27055	3.2080642	238.7080	237.2594	7.135350	33.01874
1583	5.27045	3.2080019	238.4708	237.0239	7.135391	33.01824
1584	5.27010	3.2078773	238.2367	236.7913	7.135496	33.01728
1585	5.26980	3.2078523	238.0083	236.5644	7.135542	33.01740
1586	5.26945	3.2077589	237.7648	236.3226	7.135630	33.01680
1587	5.26930	3.2077899	237.5244	236.0837	7.135626	33.01742
1588	5.26921	3.2076965	237.2813	235.8422	7.135683	33.01658
1589	5.26896	3.2076030	237.0467	235.6092	7.135759	33.01587
1590	5.26871	3.2075718	236.8158	235.3799	7.135802	33.01588
1591	5.26846	3.2075157	236.5876	235.1531	7.135858	33.01559
1592	5.26826	3.2074907	236.3531	234.9202	7.135891	33.01562
1593	5.26816	3.2074533	236.1220	234.6907	7.135918	33.01541
1594	5.26786	3.2074221	235.8845	234.4547	7.135967	33.01547
1595	5.26771	3.2073598	235.6502	234.2219	7.136013	33.01502
1596	5.26756	3.2073286	235.4281	234.0014	7.136044	33.01492
1597	5.26751	3.2073285	235.1971	233.7719	7.136045	33.01508
1598	5.26746	3.2072662	234.9627	233.5390	7.136079	33.01454
1599	5.26726	3.2072661	234.7315	233.3094	7.136098	33.01485
1600	5.26716	3.2072349	234.4941	233.0735	7.136122	33.01471
1601	5.26716	3.2071726	234.2535	232.8346	7.136150	33.01412
1602	5.26701	3.2071476	234.0256	232.6082	7.136177	33.01409
1603	5.26701	3.2071164	233.7790	232.3631	7.136188	33.01386
1604	5.26691	3.2071163	233.5417	232.1274	7.136195	33.01407
1605	5.26696	3.2070727	233.3016	231.8889	7.136206	33.01365
1606	5.26686	3.2070851	233.0609	231.6499	7.136207	33.01401
1607	5.26681	3.2070227	232.8205	231.4110	7.136241	33.01346
1608	5.26676	3.2069915	232.5833	231.1754	7.136258	33.01327
1609	5.26666	3.2069603	232.3397	230.9334	7.136282	33.01314
1610	5.26661	3.2068980	232.1022	230.6975	7.136316	33.01259
1611	5.26666	3.2068357	231.8652	230.4620	7.136337	33.01195
1612	5.26666	3.2068045	231.6308	230.2292	7.136348	33.01171
1613	5.26671	3.2067795	231.3967	229.9966	7.136350	33.01149
1614	5.26691	3.2067483	231.1563	229.7578	7.136336	33.01106
1615	5.26706	3.2067171	230.9279	229.5309	7.136329	33.01067
1616	5.26721	3.2067170	230.6935	229.2981	7.136304	33.01064
1617	5.26716	3.2066796	230.4624	229.0685	7.136325	33.01038
1618	5.26736	3.2066546	230.2281	228.8357	7.136308	33.01001
1619	5.26751	3.2066234	229.9970	228.6062	7.136301	33.00962
1620	5.26756	3.2065922	229.7596	228.3703	7.136306	33.00934
1621	5.26776	3.2065922	229.5283	228.1406	7.136275	33.00926
1622	5.26791	3.2065921	229.2911	227.9050	7.136251	33.00922
1623	5.26796	3.2065609	229.0354	227.6509	7.136255	33.00895
1624	5.26806	3.2065608	228.7674	227.3847	7.136237	33.00898
1625	5.26821	3.2064985	228.5178	227.1368	7.136245	33.00825
1626	5.26831	3.2064673	228.2746	226.8951	7.136244	33.00791
1627	5.26826	3.2064112	228.0434	226.6654	7.136275	33.00744
1628	5.26846	3.2064671	227.8123	226.4359	7.136214	33.00799
1629	5.26866	3.2064670	227.5686	226.1938	7.136184	33.00792
1630	5.26876	3.2064545	227.3285	225.9553	7.136172	33.00780
1631	5.26871	3.2064669	227.0939	225.7222	7.136166	33.00810
1632	5.26871	3.2063485	226.8567	225.4866	7.136224	33.00687
1633	5.26886	3.2063796	226.6130	225.2445	7.136183	33.00720
1634	5.26881	3.2063795	226.3790	225.0120	7.136184	33.00736
1635	5.26876	3.2063172	226.1388	224.7734	7.136218	33.00682
1636	5.26876	3.2062860	225.9074	224.5435	7.136229	33.00658
1637	5.26856	3.2061614	225.6697	224.3074	7.136315	33.00547
1638	5.26831	3.2060742	225.4356	224.0748	7.136388	33.00484
1639	5.26806	3.2059808	225.2044	223.8452	7.136464	33.00414
1640	5.26761	3.2058562	224.9669	223.6092	7.136582	33.00327
1641	5.26721	3.2058250	224.7361	223.3799	7.136643	33.00343
1642	5.26696	3.2057440	224.5015	223.1468	7.136712	33.00286
1643	5.26661	3.2056444	224.2581	222.9051	7.136804	33.00219
1644	5.26621	3.2055820	224.0269	222.6754	7.136882	33.00199
1645	5.26596	3.2055197	223.7895	222.4395	7.136941	33.00164
1646	5.26571	3.2054885	223.5489	222.2005	7.136983	33.00165
1647	5.26542	3.2054262	223.3087	221.9619	7.137049	33.00135
1648	5.26527	3.2053701	223.0651	221.7199	7.137092	33.00098
1649	5.26517	3.2053078	222.8309	221.4872	7.137132	33.00048
1650	5.26502	3.2052766	222.5903	221.2482	7.137162	33.00040
1651	5.26492	3.2051832	222.3500	221.0095	7.137219	32.99955
1652	5.26472	3.2050897	222.1096	220.7707	7.137289	32.99880
1653	5.26457	3.2049714	221.8694	220.5321	7.137365	32.99771
1654	5.26442	3.2049340	221.6351	220.2993	7.137399	32.99755
1655	5.26452	3.2049713	221.4041	220.0698	7.137361	32.99799
1656	5.26447	3.2048778	221.1571	219.8244	7.137411	32.99710
1657	5.26447	3.2047844	220.9259	219.5947	7.137456	32.99615
1658	5.26447	3.2046350	220.6887	219.3591	7.137530	32.99456
1659	5.26452	3.2047531	220.4544	219.1263	7.137455	32.99598
1660	5.26472	3.2047219	220.2201	218.8936	7.137442	32.99554
1661	5.26497	3.2046970	219.9799	218.6550	7.137418	32.99513
1662	5.26532	3.2046969	219.7485	218.4250	7.137369	32.99490
1663	5.26547	3.2046968	219.5048	218.1829	7.137344	32.99487
1664	5.26586	3.2046967	219.2614	217.9411	7.137288	32.99460
1665	5.26611	3.2046780	219.0362	217.7174	7.137262	32.99425
1666	5.26646	3.2046344	218.7806	217.4635	7.137235	32.99354
1667	5.26701	3.2046031	218.5223	217.2068	7.137177	32.99277
1668	5.26741	3.2046031	218.2633	216.9496	7.137121	32.99251
1669	5.26776	3.2045096	218.0171	216.7050	7.137121	32.99122
1670	5.26801	3.2045718	217.7857	216.4751	7.137051	32.99180
1671	5.26841	3.2045406	217.5488	216.2397	7.137012	32.99117
1672	5.26876	3.2045405	217.3111	216.0036	7.136963	32.99094
1673	5.26896	3.2045404	217.0738	215.7679	7.136932	32.99086
1674	5.26921	3.2044781	216.8274	215.5231	7.136929	32.99003
1675	5.26940	3.2044469	216.5867	215.2840	7.136915	32.98960
1676	5.26960	3.2043597	216.3434	215.0422	7.136931	32.98853
1677	5.26985	3.2043223	216.1153	214.8156	7.136914	32.98797
1678	5.26975	3.2042973	215.8745	214.5764	7.136934	32.98790
1679	5.26995	3.2042039	215.6373	214.3408	7.136954	32.98676
1680	5.26990	3.2041416	215.4060	214.1110	7.136988	32.98621
1681	5.27010	3.2041104	215.1720	213.8785	7.136974	32.98577
1682	5.27010	3.2040792	214.9344	213.6424	7.136985	32.98554
1683	5.27030	3.2040169	214.6912	213.4008	7.136988	32.98475
1684	5.27035	3.2039920	214.4480	213.1592	7.136989	32.98454
1685	5.27045	3.2039608	214.2133	212.9260	7.136988	32.98420
1686	5.27045	3.2039296	213.9760	212.6902	7.136999	32.98396
1687	5.27050	3.2038673	213.7293	212.4452	7.137020	32.98332
1688	5.27050	3.2038050	213.4858	212.2033	7.137048	32.98273
1689	5.27035	3.2037738	213.2457	211.9648	7.137078	32.98265
1690	5.27025	3.2037115	213.0053	211.7259	7.137118	32.98215
1691	5.27005	3.2035931	212.7558	211.4780	7.137201	32.98112
1692	5.26985	3.2034375	212.5215	211.2453	7.137304	32.97966
1693	5.26940	3.2033192	212.2750	211.0004	7.137418	32.97887
1694	5.26911	3.2031636	212.0376	210.7645	7.137533	32.97751
1695	5.26871	3.2031013	211.7973	210.5258	7.137611	32.97731
1696	5.26846	3.2029518	211.5538	210.2838	7.137717	32.97597
1697	5.26826	3.2028895	211.3164	210.0480	7.137770	32.97558
1698	5.26801	3.2028584	211.0819	209.8150	7.137812	32.97558
1699	5.26796	3.2028272	210.8448	209.5795	7.137830	32.97539
1700	5.26811	3.2027400	210.6043	209.3405	7.137852	32.97437
1701	5.26816	3.2027337	210.3732	209.1109	7.137844	32.97437
1702	5.26831	3.2027025	210.1266	208.8660	7.137836	32.97399
1703	5.26846	3.2026713	209.8950	208.6358	7.137828	32.97360
1704	5.26871	3.2026152	209.6549	208.3973	7.137821	32.97283
1705	5.26916	3.2026152	209.4111	208.1551	7.137759	32.97251
1706	5.26945	3.2025218	209.1771	207.9226	7.137766	32.97127
1707	5.26985	3.2024595	208.9306	207.6777	7.137744	32.97029
1708	5.27015	3.2023349	208.6901	207.4388	7.137767	32.96869
1709	5.27035	3.2022789	208.4435	207.1938	7.137766	32.96798
1710	5.27070	3.2021543	208.1911	206.9430	7.137783	32.96634
1711	5.27095	3.2021231	207.9356	206.6892	7.137762	32.96587
1712	5.27105	3.2020297	207.6890	206.4442	7.137794	32.96483
1713	5.27125	3.2018803	207.4452	206.2020	7.137843	32.96305
1714	5.27125	3.2017869	207.2053	205.9636	7.137888	32.96210
1715	5.27120	3.2017247	206.9708	205.7306	7.137922	32.96155
1716	5.27115	3.2016935	206.7305	205.4920	7.137939	32.96137
1717	5.27120	3.2016063	206.4962	205.2591	7.137974	32.96044
1718	5.27130	3.2014196	206.2466	205.0112	7.138056	32.95834
1719	5.27145	3.2013573	206.0183	204.7844	7.138065	32.95759
1720	5.27160	3.2011768	205.7811	204.5487	7.138137	32.95550
1721	5.27175	3.2010212	205.5376	204.3068	7.138196	32.95370
1722	5.27200	3.2009340	205.2940	204.0648	7.138206	32.95258
1723	5.27230	3.2008717	205.0659	203.8381	7.138196	32.95169
1724	5.27245	3.2006601	204.8226	203.5964	7.138285	32.94925
1725	5.27290	3.2004734	204.5852	203.3605	7.138323	32.94680
1726	5.27324	3.2003801	204.3509	203.1278	7.138323	32.94551
1727	5.27354	3.2001685	204.0984	202.8769	7.138393	32.94293
1728	5.27384	3.2000751	203.8637	202.6437	7.138400	32.94168
1729	5.27414	3.1999257	203.6203	202.4019	7.138437	32.93981
1730	5.27439	3.1998323	203.3831	202.1663	7.138450	32.93861
1731	5.27434	3.1996830	203.1366	201.9213	7.138530	32.93708
1732	5.27454	3.1996083	202.8992	201.6854	7.138539	32.93615
1733	5.27464	3.1994651	202.6526	201.4405	7.138598	32.93454
1734	5.27459	3.1992847	202.4156	201.2049	7.138695	32.93265
1735	5.27469	3.1991291	202.1749	200.9658	7.138760	32.93090
1736	5.27454	3.1988865	201.9345	200.7270	7.138903	32.92840
1737	5.27444	3.1987371	201.6882	200.4823	7.138990	32.92691
1738	5.27414	3.1985816	201.4445	200.2402	7.139105	32.92555
1739	5.27399	3.1983389	201.2073	200.0045	7.139249	32.92305
1740	5.27374	3.1982456	200.9698	199.7685	7.139324	32.92235
1741	5.27379	3.1981211	200.7324	199.5326	7.139379	32.92100
1742	5.27364	3.1980340	200.5012	199.3029	7.139439	32.92027
1743	5.27369	3.1979096	200.2668	199.0701	7.139494	32.91891
1744	5.27359	3.1977851	200.0234	198.8282	7.139568	32.91771
1745	5.27364	3.1976980	199.7860	198.5924	7.139602	32.91679
1746	5.27374	3.1975424	199.5458	198.3537	7.139668	32.91504
1747	5.27384	3.1974242	199.3052	198.1147	7.139713	32.91371
1748	5.27399	3.1973308	199.0711	197.8820	7.139738	32.91261
1749	5.27414	3.1972686	198.8365	197.6490	7.139747	32.91187
1750	5.27429	3.1971752	198.5902	197.4042	7.139773	32.91078
1751	5.27424	3.1971503	198.3438	197.1595	7.139787	32.91067
1752	5.27454	3.1971005	198.1001	196.9173	7.139770	32.90993
1753	5.27464	3.1970258	197.8383	196.6573	7.139791	32.90911
1754	5.27469	3.1969635	197.5891	196.4096	7.139813	32.90847
1755	5.27474	3.1968453	197.3392	196.1613	7.139864	32.90720
1756	5.27499	3.1967209	197.0931	195.9168	7.139893	32.90566
1757	5.27509	3.1965653	196.8553	195.6806	7.139958	32.90391
1758	5.27544	3.1964782	196.6180	195.4448	7.139956	32.90269
1759	5.27559	3.1964160	196.3746	195.2030	7.139964	32.90195
1760	5.27584	3.1963848	196.1311	194.9610	7.139944	32.90147
1761	5.27619	3.1962914	195.8971	194.7285	7.139945	32.90018
1762	5.27644	3.1962292	195.6563	194.4893	7.139941	32.89935
1763	5.27654	3.1961421	195.4099	194.2444	7.139969	32.89838
1764	5.27659	3.1960798	195.1816	194.0176	7.139991	32.89773
1765	5.27678	3.1959865	194.9418	193.7794	7.140010	32.89659
1766	5.27683	3.1959553	194.7042	193.5433	7.140015	32.89630
1767	5.27683	3.1958993	194.4637	193.3043	7.140039	32.89578
1768	5.27693	3.1958060	194.2262	193.0683	7.140071	32.89474
1769	5.27708	3.1956815	193.9919	192.8356	7.140114	32.89329
1770	5.27703	3.1955944	193.7545	192.5997	7.140161	32.89246
1771	5.27718	3.1953892	193.5111	192.3579	7.140246	32.89010
1772	5.27723	3.1952586	193.2676	192.1159	7.140304	32.88868
1773	5.27743	3.1951031	193.0242	191.8741	7.140357	32.88683
1774	5.27748	3.1949538	192.7806	191.6321	7.140425	32.88520
1775	5.27758	3.1948916	192.5373	191.3903	7.140440	32.88451
1776	5.27763	3.1947982	192.2999	191.1545	7.140478	32.88352
1777	5.27783	3.1947049	192.0654	190.9215	7.140497	32.88237
1778	5.27768	3.1946178	191.8127	190.6703	7.140557	32.88165
1779	5.27778	3.1944623	191.5727	190.4319	7.140622	32.87990
1780	5.27773	3.1943939	191.3260	190.1868	7.140659	32.87929
1781	5.27768	3.1942819	191.0917	189.9540	7.140720	32.87818
1782	5.27748	3.1941886	190.8512	189.7150	7.140789	32.87743
1783	5.27748	3.1940083	190.6109	189.4763	7.140880	32.87549
1784	5.27713	3.1937658	190.3706	189.2375	7.141048	32.87319
1785	5.27654	3.1937035	190.1390	189.0074	7.141152	32.87318
1786	5.27599	3.1932435	189.8987	188.7686	7.141462	32.86859
1787	5.27489	3.1927587	189.6583	188.5298	7.141854	32.86426
1788	5.27294	3.1922739	189.4209	188.2939	7.142353	32.86075
1789	5.27075	3.1917891	189.1865	188.0611	7.142884	32.85749
1790	5.26836	3.1918760	188.9521	187.8281	7.143133	32.86095
1791	5.26711	3.1914472	188.7118	187.5894	7.143515	32.85740
1792	5.26626	3.1913291	188.4777	187.3567	7.143679	32.85700
1793	5.26581	3.1912979	188.2310	187.1116	7.143747	32.85720
1794	5.26576	3.1912979	187.9848	186.8670	7.143748	32.85737
1795	5.26676	3.1912667	187.7441	186.6279	7.143633	32.85616
1796	5.26821	3.1912977	187.5005	186.3858	7.143428	32.85522
1797	5.26935	3.1911485	187.2451	186.1321	7.143358	32.85252
1798	5.27040	3.1912043	186.9864	185.8750	7.143190	32.85226
1799	5.27125	3.1911421	186.7245	185.6148	7.143110	32.85085
1800	5.27215	3.1909618	186.4842	185.3760	7.143088	32.84803
1801	5.27275	3.1908374	186.2436	185.1369	7.143073	32.84614
1802	5.27304	3.1907814	186.0064	184.9013	7.143060	32.84533
1803	5.27324	3.1907814	185.7627	184.6591	7.143029	32.84525
1804	5.27339	3.1906570	185.5223	184.4203	7.143071	32.84381
1805	5.27339	3.1906010	185.2881	184.1875	7.143096	32.84329
1806	5.27334	3.1905637	185.0508	183.9517	7.143117	32.84303
1807	5.27339	3.1905077	184.8041	183.7066	7.143135	32.84246
1808	5.27319	3.1904455	184.5759	183.4799	7.143188	32.84206
1809	5.27309	3.1903211	184.3448	183.2503	7.143262	32.84086
1810	5.27290	3.1902900	184.1044	183.0113	7.143298	32.84082
1811	5.27270	3.1901719	183.8668	182.7753	7.143381	32.83978
1812	5.27230	3.1900786	183.6145	182.5246	7.143475	32.83923
1813	5.27155	3.1899294	183.3892	182.3007	7.143644	32.83838
1814	5.27105	3.1896995	183.1519	182.0649	7.143825	32.83636
1815	5.27030	3.1896249	182.9113	181.8259	7.143953	32.83636
1816	5.26975	3.1894384	182.6802	181.5962	7.144117	32.83489
1817	5.26906	3.1893514	182.4458	181.3634	7.144246	32.83470
1818	5.26846	3.1891960	182.2085	181.1276	7.144399	32.83363
1819	5.26801	3.1890158	181.9739	180.8945	7.144547	32.83213
1820	5.26756	3.1888915	181.7336	180.6557	7.144665	32.83127
1821	5.26741	3.1887113	181.4930	180.4166	7.144774	32.82948
1822	5.26746	3.1886429	181.2526	180.1778	7.144799	32.82877
1823	5.26736	3.1884999	181.0152	179.9419	7.144883	32.82736
1824	5.26756	3.1884067	180.7871	179.7152	7.144902	32.82621
1825	5.26761	3.1883445	180.5466	179.4763	7.144924	32.82557
1826	5.26771	3.1881953	180.3031	179.2343	7.144985	32.82389
1827	5.26766	3.1880710	180.0719	179.0046	7.145053	32.82264
1828	5.26796	3.1879778	179.8313	178.7655	7.145059	32.82140
1829	5.26821	3.1879529	179.5969	178.5325	7.145036	32.82099
1830	5.26821	3.1879031	179.3656	178.3028	7.145057	32.82054
1831	5.26836	3.1878285	179.1286	178.0673	7.145073	32.81966
1832	5.26831	3.1877974	178.9002	177.8404	7.145090	32.81946
1833	5.26846	3.1877352	178.6537	177.5954	7.145099	32.81873
1834	5.26851	3.1876792	178.4225	177.3656	7.145117	32.81816
1835	5.26856	3.1876481	178.1852	177.1298	7.145122	32.81787
1836	5.26866	3.1875548	177.9386	176.8848	7.145154	32.81683
1837	5.26881	3.1874926	177.7010	176.6487	7.145163	32.81610
1838	5.26881	3.1874553	177.4669	176.4161	7.145177	32.81579
1839	5.26891	3.1873434	177.2262	176.1770	7.145219	32.81453
1840	5.26901	3.1872812	176.9917	175.9440	7.145234	32.81384
1841	5.26896	3.1872191	176.7517	175.7055	7.145268	32.81330
1842	5.26901	3.1870389	176.5111	175.4664	7.145353	32.81132
1843	5.26896	3.1869767	176.2521	175.2090	7.145387	32.81078
1844	5.26866	3.1868276	175.9845	174.9432	7.145498	32.80951
1845	5.26836	3.1867840	175.7322	174.6925	7.145553	32.80943
1846	5.26821	3.1867032	175.4975	174.4592	7.145610	32.80877
1847	5.26806	3.1866410	175.2693	174.2325	7.145657	32.80832
1848	5.26796	3.1865789	175.0322	173.9969	7.145697	32.80783
1849	5.26776	3.1865539	174.7916	173.7578	7.145730	32.80786
1850	5.26756	3.1864918	174.5483	173.5160	7.145783	32.80747
1851	5.26731	3.1864296	174.2743	173.2438	7.145841	32.80714
1852	5.26731	3.1864295	173.9791	172.9504	7.145834	32.80728
1853	5.26711	3.1863984	173.6929	172.6661	7.145869	32.80726
1854	5.26711	3.1863983	173.4554	172.4300	7.145864	32.80738
1855	5.26696	3.1863672	173.2242	172.2003	7.145894	32.80729
1856	5.26696	3.1863671	172.9899	171.9675	7.145889	32.80740
1857	5.26681	3.1863360	172.7556	171.7347	7.145919	32.80731
1858	5.26706	3.1863359	172.5121	171.4927	7.145882	32.80719
1859	5.26706	3.1862799	172.2716	171.2538	7.145906	32.80667
1860	5.26706	3.1862799	172.0312	171.0148	7.145900	32.80679
1861	5.26701	3.1862984	171.7879	170.7731	7.145891	32.80717
1862	5.26696	3.1861555	171.5472	170.5339	7.145968	32.80571
1863	5.26701	3.1861244	171.3130	170.3012	7.145973	32.80542
1864	5.26681	3.1860312	171.0756	170.0653	7.146043	32.80467
1865	5.26676	3.1859131	170.8262	169.8175	7.146107	32.80350
1866	5.26666	3.1857888	170.5916	169.5844	7.146180	32.80229
1867	5.26636	3.1856708	170.3482	169.3425	7.146276	32.80136
1868	5.26621	3.1855589	170.1018	169.0976	7.146349	32.80035
1869	5.26611	3.1854285	169.8645	168.8618	7.146426	32.79908
1870	5.26586	3.1853663	169.6209	168.6198	7.146485	32.79873
1871	5.26581	3.1852420	169.3894	168.3897	7.146552	32.79748
1872	5.26547	3.1850929	169.1430	168.1449	7.146671	32.79624
1873	5.26547	3.1849128	168.8933	167.8968	7.146761	32.79431
1874	5.26532	3.1847264	168.6530	167.6580	7.146874	32.79245
1875	5.26522	3.1845463	168.4095	167.4160	7.146978	32.79062
1876	5.26517	3.1844096	168.1661	167.1741	7.147052	32.78923
1877	5.26512	3.1843351	167.9316	166.9411	7.147093	32.78854
1878	5.26507	3.1841798	167.6975	166.7085	7.147177	32.78694
1879	5.26512	3.1841176	167.4569	166.4695	7.147198	32.78630
1880	5.26512	3.1840306	167.2256	166.2396	7.147239	32.78542
1881	5.26512	3.1839685	166.9791	165.9947	7.147267	32.78483
1882	5.26527	3.1839063	166.7448	165.7618	7.147276	32.78409
1883	5.26532	3.1838628	166.5104	165.5289	7.147287	32.78367
1884	5.26532	3.1837882	166.2730	165.2930	7.147322	32.78293
1885	5.26547	3.1837571	166.0295	165.0510	7.147314	32.78255
1886	5.26552	3.1836639	165.7859	164.8090	7.147352	32.78156
1887	5.26566	3.1835707	165.5395	164.5641	7.147377	32.78047
1888	5.26576	3.1835706	165.2778	164.3040	7.147359	32.78051
1889	5.26601	3.1834526	165.0252	164.0531	7.147384	32.77904
1890	5.26621	3.1833283	164.7847	163.8140	7.147420	32.77755
1891	5.26661	3.1832227	164.5475	163.5783	7.147421	32.77607
1892	5.26716	3.1829681	164.3038	163.3362	7.147482	32.77275
1893	5.26796	3.1828749	164.0543	163.0883	7.147426	32.77103
1894	5.26861	3.1826638	163.8171	162.8526	7.147452	32.76811
1895	5.26950	3.1824216	163.5794	162.6163	7.147462	32.76459
1896	5.27070	3.1822664	163.3298	162.3683	7.147389	32.76177
1897	5.27175	3.1821483	163.0955	162.1354	7.147314	32.75951
1898	5.27255	3.1818751	162.8490	161.8905	7.147354	32.75574
1899	5.27369	3.1816020	162.6179	161.6609	7.147350	32.75162
1900	5.27509	3.1813598	162.3744	161.4189	7.147298	32.74761
1901	5.27634	3.1810867	162.1400	161.1860	7.147281	32.74340
1902	5.27773	3.1808135	161.9117	160.9591	7.147246	32.73903
1903	5.27928	3.1807203	161.6650	160.7140	7.147095	32.73658
1904	5.28048	3.1806023	161.4276	160.4780	7.147001	32.73418
1905	5.28162	3.1804967	161.1842	160.2362	7.146907	32.73198
1906	5.28262	3.1803911	160.9441	159.9975	7.146832	32.72992
1907	5.28342	3.1803290	160.7033	159.7582	7.146759	32.72855
1908	5.28427	3.1802669	160.4658	159.5223	7.146680	32.72713
1909	5.28496	3.1802358	160.2255	159.2834	7.146603	32.72622
1910	5.28556	3.1802047	159.9882	159.0477	7.146538	32.72539
1911	5.28596	3.1802046	159.7418	158.8028	7.146482	32.72513
1912	5.28636	3.1801797	159.4922	158.5547	7.146439	32.72458
1913	5.28656	3.1801424	159.2487	158.3127	7.146428	32.72408
1914	5.28686	3.1801175	159.0145	158.0800	7.146398	32.72362
1915	5.28721	3.1800864	158.7677	157.8348	7.146365	32.72304
1916	5.28731	3.1800553	158.5304	157.5990	7.146364	32.72271
1917	5.28756	3.1799621	158.2840	157.3542	7.146376	32.72153
1918	5.28796	3.1798565	158.0463	157.1179	7.146377	32.72005
1919	5.28841	3.1796889	157.8000	156.8732	7.146404	32.71782
1920	5.28900	3.1794778	157.5625	156.6371	7.146436	32.71495
1921	5.28970	3.1794778	157.3282	156.4043	7.146343	32.71439
1922	5.29035	3.1793288	157.0879	156.1655	7.146335	32.71217
1923	5.29095	3.1790867	156.8472	155.9263	7.146383	32.70895
1924	5.29170	3.1789005	156.6101	155.6906	7.146383	32.70621
1925	5.29290	3.1786460	156.3785	155.4605	7.146362	32.70226
1926	5.29409	3.1783853	156.1381	155.2217	7.146345	32.69824
1927	5.29554	3.1781743	155.8976	154.9826	7.146270	32.69454
1928	5.29699	3.1779323	155.6573	154.7438	7.146211	32.69049
1929	5.29873	3.1777833	155.4201	154.5081	7.146064	32.68721
1930	5.30018	3.1775971	155.1794	154.2689	7.145976	32.68380
1931	5.30173	3.1773861	154.9300	154.0211	7.145887	32.68001
1932	5.30357	3.1771068	154.6773	153.7700	7.145798	32.67515
1933	5.30567	3.1768710	154.4215	153.5158	7.145653	32.67055
1934	5.30817	3.1764491	154.1809	153.2767	7.145558	32.66343
1935	5.31141	3.1760272	153.9467	153.0439	7.145368	32.65558
1936	5.31510	3.1758720	153.7003	152.7990	7.144979	32.65034
1937	5.31835	3.1756610	153.4628	152.5630	7.144676	32.64489
1938	5.32174	3.1753198	153.2162	152.3180	7.144424	32.63782
1939	5.32549	3.1750840	152.9879	152.0911	7.144072	32.63161
1940	5.32958	3.1748420	152.7508	151.8554	7.143678	32.62499
1941	5.33338	3.1746001	152.5070	151.6131	7.143322	32.61866
1942	5.33742	3.1742403	152.2789	151.3865	7.142998	32.61074
1943	5.34167	3.1739983	152.0445	151.1535	7.142586	32.60398
1944	5.34611	3.1738742	151.8130	150.9235	7.142085	32.59836
1945	5.34976	3.1737873	151.5818	150.6937	7.141666	32.59394
1946	5.35261	3.1736631	151.3474	150.4608	7.141367	32.58988
1947	5.35540	3.1735762	151.1164	150.2312	7.141054	32.58629
1948	5.35825	3.1736071	150.8787	149.9950	7.140673	32.58399
1949	5.36040	3.1736070	150.6567	149.7744	7.140396	32.58201
1950	5.36190	3.1736070	150.4254	149.5445	7.140202	32.58067
1951	5.36345	3.1736255	150.1970	149.3175	7.139991	32.57949
1952	5.36485	3.1736626	149.9687	149.0906	7.139789	32.57866
1953	5.36635	3.1736935	149.7373	148.8607	7.139578	32.57767
1954	5.36855	3.1737864	149.5061	148.6309	7.139245	32.57671
1955	5.37154	3.1738731	149.2748	148.4011	7.138815	32.57490
1956	5.37474	3.1739661	149.0434	148.1711	7.138357	32.57296
1957	5.37854	3.1741024	148.8122	147.9414	7.137799	32.57094
1958	5.38319	3.1742697	148.5839	147.7145	7.137118	32.56844
1959	5.38824	3.1743564	148.3527	147.4847	7.136429	32.56464
1960	5.39314	3.1744803	148.1215	147.2549	7.135740	32.56141
1961	5.39824	3.1746290	147.8899	147.0248	7.135011	32.55827
1962	5.40369	3.1747839	147.6647	146.8010	7.134236	32.55485
1963	5.40955	3.1748086	147.4364	146.5741	7.133480	32.54957
1964	5.41535	3.1749325	147.2142	146.3533	7.132677	32.54546
1965	5.42135	3.1749324	146.9799	146.1205	7.131914	32.53975
1966	5.42611	3.1749322	146.7609	145.9028	7.131310	32.53525
1967	5.43036	3.1749631	146.5325	145.6758	7.130752	32.53160
1968	5.43412	3.1749010	146.3072	145.4519	7.130307	32.52737
1969	5.43842	3.1748389	146.0880	145.2341	7.129792	32.52260
1970	5.44268	3.1748698	145.8659	145.0133	7.129234	32.51894
1971	5.44638	3.1748697	145.6500	144.7988	7.128763	32.51546
1972	5.45029	3.1748696	145.4245	144.5747	7.128265	32.51179
1973	5.45389	3.1749935	145.1964	144.3480	7.127740	32.50982
1974	5.45725	3.1750802	144.9834	144.1362	7.127267	32.50766
1975	5.46020	3.1751111	144.7459	143.9003	7.126872	32.50527
1976	5.46291	3.1752537	144.4932	143.6491	7.126450	32.50440
1977	5.46576	3.1752660	144.2678	143.4251	7.126079	32.50188
1978	5.46832	3.1753527	144.0521	143.2107	7.125706	32.50050
1979	5.47087	3.1754457	143.8356	142.9956	7.125330	32.49919
1980	5.47363	3.1754456	143.6105	142.7719	7.124978	32.49664
1981	5.47608	3.1754455	143.3884	142.5511	7.124664	32.49437
1982	5.47854	3.1754392	143.1693	142.3334	7.124353	32.49204
1983	5.48089	3.1753833	142.9473	142.1128	7.124081	32.48923
1984	5.48295	3.1752963	142.7188	141.8857	7.123864	32.48638
1985	5.48465	3.1752032	142.5057	141.6739	7.123694	32.48378
1986	5.48625	3.1749923	142.2834	141.4530	7.123598	32.47995
1987	5.48726	3.1748992	142.0643	141.2352	7.123516	32.47803
1988	5.48811	3.1747689	141.8393	141.0116	7.123473	32.47584
1989	5.48881	3.1746262	141.6231	140.7968	7.123455	32.47366
1990	5.48996	3.1745951	141.4042	140.5792	7.123322	32.47230
1991	5.49132	3.1745950	141.1788	140.3552	7.123146	32.47110
1992	5.49377	3.1745949	140.9535	140.1313	7.122832	32.46884
1993	5.49608	3.1745700	140.7376	139.9167	7.122550	32.46643
1994	5.49929	3.1745699	140.5122	139.6928	7.122141	32.46345
1995	5.50214	3.1745450	140.2840	139.4660	7.121789	32.46052
1996	5.50470	3.1745387	140.0648	139.2480	7.121466	32.45809
1997	5.50731	3.1745696	139.8486	139.0332	7.121116	32.45602
1998	5.50996	3.1745695	139.6236	138.8096	7.120777	32.45357
1999	5.51277	3.1746252	139.4041	138.5914	7.120389	32.45160
2000	5.51578	3.1746561	139.1850	138.3737	7.119989	32.44915
2001	5.51954	3.1746436	138.9567	138.1468	7.119517	32.44549
2002	5.52255	3.1746559	138.7314	137.9230	7.119127	32.44284
2003	5.52551	3.1746558	138.5122	137.7050	7.118750	32.44009
2004	5.52842	3.1747178	138.2904	137.4846	7.118346	32.43810
2005	5.53133	3.1747797	138.0620	137.2576	7.117942	32.43610
2006	5.53499	3.1748974	137.8396	137.0366	7.117414	32.43401
2007	5.53861	3.1750896	137.6206	136.8189	7.116853	32.43281
2008	5.54247	3.1754120	137.4045	136.6042	7.116192	32.43284
2009	5.54769	3.1757467	137.1794	136.3804	7.115354	32.43171
2010	5.55371	3.1758645	136.9601	136.1625	7.114530	32.42734
2011	5.55863	3.1759884	136.7410	135.9448	7.113842	32.42411
2012	5.56285	3.1761061	136.5189	135.7240	7.113244	32.42149
2013	5.56702	3.1762301	136.2967	135.5032	7.112650	32.41899
2014	5.57083	3.1763044	136.0683	135.2762	7.112127	32.41626
2015	5.57415	3.1763167	135.8463	135.0555	7.111699	32.41332
2016	5.57741	3.1764717	135.6299	134.8405	7.111202	32.41203
2017	5.58138	3.1765894	135.4048	134.6167	7.110637	32.40965
2018	5.58555	3.1767134	135.1673	134.3808	7.110042	32.40716
2019	5.58977	3.1770172	134.9177	134.1327	7.109347	32.40665
2020	5.59479	3.1771659	134.6652	133.8818	7.108632	32.40362
2021	5.59991	3.1773767	134.4491	133.6670	7.107873	32.40118
2022	5.60514	3.1775876	134.2299	133.4491	7.107101	32.39864
2023	5.61017	3.1776495	134.0016	133.2222	7.106433	32.39461
2024	5.61424	3.1777424	133.7765	132.9984	7.105868	32.39186
2025	5.61720	3.1778602	133.5541	132.7775	7.105429	32.39045
2026	5.61997	3.1779531	133.3319	132.5566	7.105028	32.38895
2027	5.62243	3.1780895	133.1070	132.3331	7.104642	32.38823
2028	5.62495	3.1781639	132.8876	132.1150	7.104283	32.38676
2029	5.62736	3.1782879	132.6564	131.8853	7.103910	32.38595
2030	5.62927	3.1783747	132.4403	131.6705	7.103620	32.38520
2031	5.63128	3.1783746	132.2180	131.4495	7.103362	32.38337
2032	5.63284	3.1785296	131.9898	131.2227	7.103080	32.38373
2033	5.63440	3.1785667	131.7737	131.0080	7.102860	32.38276
2034	5.63601	3.1786473	131.5391	130.7748	7.102611	32.38224
2035	5.63747	3.1787093	131.3202	130.5572	7.102391	32.38164
2036	5.63852	3.1787402	131.0951	130.3335	7.102237	32.38109
2037	5.63958	3.1788022	130.8697	130.1095	7.102067	32.38088
2038	5.64064	3.1789200	130.6504	129.8915	7.101868	32.38130
2039	5.64219	3.1789509	130.4313	129.6738	7.101651	32.38026
2040	5.64355	3.1791432	130.2000	129.4439	7.101374	32.38124
2041	5.64617	3.1792858	129.9807	129.2260	7.100967	32.38044
2042	5.64969	3.1794346	129.7557	129.0023	7.100442	32.37884
2043	5.65351	3.1794966	129.5334	128.7813	7.099926	32.37598
2044	5.65704	3.1797074	129.3113	128.5607	7.099369	32.37508
2045	5.66101	3.1798314	129.0828	128.3336	7.098800	32.37277
2046	5.66473	3.1799803	128.8577	128.1098	7.098251	32.37099
2047	5.66861	3.1801974	128.6385	127.8919	7.097647	32.36982
2048	5.67299	3.1804020	128.4164	127.6712	7.096986	32.36803
2049	5.67747	3.1804950	128.1940	127.4502	7.096371	32.36489
2050	5.68129	3.1806749	127.9750	127.2325	7.095793	32.36335
2051	5.68517	3.1809168	127.7560	127.0148	7.095176	32.36246
2052	5.68960	3.1812208	127.5308	126.7910	7.094457	32.36175
2053	5.69484	3.1813758	127.3114	126.5730	7.093716	32.35857
2054	5.69947	3.1816364	127.0953	126.3582	7.092995	32.35717
2055	5.70451	3.1818597	126.8762	126.1404	7.092243	32.35496
2056	5.70965	3.1819775	126.6632	125.9288	7.091533	32.35146
2057	5.71413	3.1824057	126.4347	125.7016	7.090744	32.35210
2058	5.72008	3.1827408	126.2126	125.4809	7.089820	32.35028
2059	5.72688	3.1828896	125.9933	125.2629	7.088887	32.34554
2060	5.73308	3.1832558	125.7681	125.0391	7.087915	32.34383
2061	5.73993	3.1834915	125.5339	124.8063	7.086930	32.34002
2062	5.74684	3.1837087	125.2843	124.5583	7.085948	32.33597
2063	5.75294	3.1840438	125.0500	124.3254	7.085006	32.33401
2064	5.75940	3.1844037	124.8247	124.1014	7.084007	32.33199
2065	5.76621	3.1847699	124.6023	123.8804	7.082961	32.32969
2066	5.77383	3.1852851	124.3832	123.6626	7.081736	32.32830
2067	5.78160	3.1855272	124.1489	123.4297	7.080635	32.32370
2068	5.78831	3.1860424	123.9267	123.2089	7.079524	32.32317
2069	5.79659	3.1866012	123.7015	122.9850	7.078196	32.32164
2070	5.80588	3.1868619	123.4764	122.7613	7.076897	32.31579
2071	5.81406	3.1871350	123.2601	122.5463	7.075730	32.31114
2072	5.82148	3.1875013	123.0410	122.3286	7.074609	32.30826
2073	5.82865	3.1876813	122.8128	122.1017	7.073617	32.30354
2074	5.83492	3.1877122	122.5937	121.8840	7.072816	32.29800
2075	5.84022	3.1875941	122.3680	121.6597	7.072211	32.29172
2076	5.84341	3.1868859	122.1463	121.4393	7.072177	32.28084
2077	5.84351	3.1861344	121.9239	121.2183	7.072550	32.27242
2078	5.84169	3.1852526	121.7077	121.0034	7.073230	32.26437
2079	5.83856	3.1844950	121.4796	120.7767	7.074009	32.25897
2080	5.83507	3.1836444	121.2603	120.5588	7.074881	32.25286
2081	5.83098	3.1827381	121.0413	120.3410	7.075857	32.24670
2082	5.82668	3.1823718	120.8130	120.1142	7.076578	32.24679
2083	5.82350	3.1819186	120.5934	119.8959	7.077206	32.24485
2084	5.82062	3.1816952	120.3716	119.6755	7.077676	32.24520
2085	5.81860	3.1815834	120.1464	119.4516	7.077982	32.24598
2086	5.81729	3.1813723	119.9239	119.2305	7.078250	32.24497
2087	5.81613	3.1811861	119.6988	119.0067	7.078487	32.24409
2088	5.81522	3.1810991	119.4827	118.7919	7.078641	32.24409
2089	5.81451	3.1810060	119.2664	118.5769	7.078773	32.24382
2090	5.81396	3.1809438	119.0352	118.3472	7.078869	32.24377
2091	5.81360	3.1808941	118.8039	118.1172	7.078934	32.24366
2092	5.81325	3.1808258	118.5818	117.8965	7.079009	32.24334
2093	5.81310	3.1807947	118.3657	117.6817	7.079039	32.24324
2094	5.81274	3.1807326	118.1374	117.4548	7.079110	32.24299
2095	5.81254	3.1807325	117.9118	117.2306	7.079131	32.24329
2096	5.81244	3.1807014	117.6897	117.0098	7.079154	32.24314
2097	5.81214	3.1806393	117.4706	116.7920	7.079220	32.24284
2098	5.81214	3.1806392	117.2452	116.5680	7.079215	32.24295
2099	5.81194	3.1806143	117.0232	116.3473	7.079248	32.24297
2100	5.81199	3.1805832	116.8010	116.1265	7.079253	32.24268
2101	5.81199	3.1805211	116.5788	115.9056	7.079280	32.24209
2102	5.81204	3.1804590	116.3566	115.6848	7.079301	32.24145
2103	5.81214	3.1802789	116.1375	115.4670	7.079377	32.23944
2104	5.81224	3.1800989	115.9184	115.2492	7.079453	32.23743
2105	5.81183	3.1799375	115.6623	114.9947	7.079582	32.23613
2106	5.81148	3.1796706	115.4130	114.7469	7.079760	32.23359
2107	5.81083	3.1792176	115.1939	114.5291	7.080072	32.22923
2108	5.80966	3.1789445	114.9776	114.3141	7.080355	32.22738
2109	5.80901	3.1788266	114.7464	114.0843	7.080493	32.22679
2110	5.80901	3.1787334	114.5210	113.8602	7.080536	32.22586
2111	5.80987	3.1786279	114.2929	113.6336	7.080479	32.22396
2112	5.81189	3.1783672	114.0677	113.4097	7.080357	32.21922
2113	5.81391	3.1777343	113.8455	113.1889	7.080429	32.21030
2114	5.81406	3.1764936	113.6232	112.9679	7.081051	32.19633
2115	5.81234	3.1754639	113.4100	112.7560	7.081797	32.18651
2116	5.80911	3.1748003	113.1879	112.5352	7.082541	32.18225
2117	5.80542	3.1735290	112.9596	112.3083	7.083659	32.17160
2118	5.80063	3.1727167	112.7343	112.0844	7.084677	32.16715
2119	5.79598	3.1718364	112.5184	111.8697	7.085711	32.16180
2120	5.79154	3.1713528	112.2930	111.6457	7.086514	32.16070
2121	5.78816	3.1709622	112.0832	111.4372	7.087136	32.15964
2122	5.78589	3.1706894	111.8484	111.2038	7.087557	32.15885
2123	5.78427	3.1703237	111.6294	110.9862	7.087945	32.15639
2124	5.78341	3.1700695	111.4131	110.7711	7.088180	32.15445
2125	5.78296	3.1698091	111.1882	110.5476	7.088368	32.15207
2126	5.78306	3.1697223	110.9627	110.3235	7.088396	32.15111
2127	5.78341	3.1696293	110.7374	110.0995	7.088395	32.14983
2128	5.78397	3.1695424	110.5152	109.8787	7.088366	32.14844
2129	5.78468	3.1694494	110.2962	109.6609	7.088321	32.14683
2130	5.78553	3.1693687	110.0648	109.4310	7.088250	32.14522
2131	5.78654	3.1693253	109.8333	109.2009	7.088141	32.14388
2132	5.78755	3.1693004	109.6171	108.9859	7.088023	32.14274
2133	5.78856	3.1693003	109.3921	108.7623	7.087892	32.14189
2134	5.78967	3.1693250	109.1604	108.5320	7.087735	32.14122
2135	5.79169	3.1694985	108.9415	108.3144	7.087387	32.14136
2136	5.79527	3.1696595	108.7162	108.0905	7.086849	32.13986
2137	5.80007	3.1698391	108.4941	107.8697	7.086150	32.13742
2138	5.80532	3.1699630	108.2657	107.6427	7.085424	32.13393
2139	5.81088	3.1701736	108.0434	107.4217	7.084614	32.13112
2140	5.81678	3.1701734	107.8210	107.2006	7.083870	32.12561
2141	5.82072	3.1702291	107.5959	106.9769	7.083343	32.12260
2142	5.82406	3.1703220	107.3860	106.7683	7.082873	32.12057
2143	5.82694	3.1702909	107.1576	106.5413	7.082524	32.11760
2144	5.82946	3.1703218	106.9356	106.3206	7.082187	32.11565
2145	5.83128	3.1703527	106.7131	106.0994	7.081939	32.11438
2146	5.83270	3.1702906	106.4909	105.8786	7.081789	32.11244
2147	5.83406	3.1702286	106.2719	105.6609	7.081646	32.11056
2148	5.83548	3.1702905	106.0313	105.4218	7.081432	32.11002
2149	5.83856	3.1704453	105.7849	105.1768	7.080960	32.10895
2150	5.84194	3.1706870	105.5686	104.9618	7.080407	32.10855
2151	5.84679	3.1712261	105.3463	104.7408	7.079515	32.11009
2152	5.85372	3.1714368	105.1213	104.5172	7.078535	32.10599
2153	5.86009	3.1715668	104.8897	104.2870	7.077667	32.10151
2154	5.86550	3.1718953	104.6675	104.0661	7.076816	32.10016
2155	5.87116	3.1718641	104.4422	103.8422	7.076119	32.09455
2156	5.87612	3.1713805	104.2170	103.6183	7.075746	32.08453
2157	5.87860	3.1710766	103.9918	103.3944	7.075589	32.07889
2158	5.87925	3.1703513	103.7727	103.1767	7.075879	32.07025
2159	5.87839	3.1692356	103.5412	102.9466	7.076560	32.05867
2160	5.87581	3.1688142	103.3253	102.7319	7.077096	32.05650
2161	5.87334	3.1682998	103.0970	102.5050	7.077667	32.05320
2162	5.87187	3.1679961	102.8779	102.2872	7.078003	32.05129
2163	5.87172	3.1678473	102.6615	102.0722	7.078095	32.04987
2164	5.87268	3.1677853	102.4304	101.8424	7.078002	32.04838
2165	5.87420	3.1677418	102.2141	101.6274	7.077830	32.04656
2166	5.87592	3.1676364	101.9888	101.4035	7.077665	32.04386
2167	5.87753	3.1675434	101.7664	101.1824	7.077506	32.04139
2168	5.87941	3.1676053	101.5444	100.9617	7.077235	32.04042
2169	5.88214	3.1686586	101.3253	100.7439	7.076342	32.04973
2170	5.88952	3.1697802	101.0999	100.5199	7.074833	32.05540
2171	5.90096	3.1708027	100.8840	100.3052	7.072870	32.05612
2172	5.91442	3.1721601	100.6617	100.0843	7.070482	32.05867
2173	5.92956	3.1733999	100.4332	99.8572	7.067947	32.05831
2174	5.94491	3.1743670	100.2081	99.6334	7.065530	32.05471
2175	5.95970	3.1755513	99.9828	99.4095	7.063070	32.05405
2176	5.97425	3.1769405	99.7604	99.1884	7.060537	32.05592
2177	5.99073	3.1790000	99.5323	98.9616	7.057419	32.06344
2178	6.01117	3.1811530	99.3100	98.7407	7.053764	32.06825
2179	6.03416	3.1823941	99.0848	98.5168	7.050266	32.06047
2180	6.05508	3.1841196	98.8595	98.2928	7.046778	32.06005
2181	6.07408	3.1854294	98.6343	98.0690	7.043745	32.05680
2182	6.09187	3.1870065	98.4088	97.8449	7.040727	32.05768
2183	6.10926	3.1885839	98.1897	97.6271	7.037761	32.05893
2184	6.12726	3.1897951	97.9706	97.4092	7.034909	32.05552
2185	6.14395	3.1902235	97.7453	97.1853	7.032621	32.04465
2186	6.15637	3.1910808	97.5200	96.9613	7.030643	32.04258
2187	6.16712	3.1918077	97.3009	96.7436	7.028939	32.04063
2188	6.17715	3.1921431	97.0787	96.5226	7.027524	32.03501
2189	6.18474	3.1925096	96.8534	96.2987	7.026395	32.03204
2190	6.19080	3.1927829	96.6281	96.0748	7.025502	32.02947
2191	6.19585	3.1929630	96.4089	95.8569	7.024783	32.02682
2192	6.20013	3.1929318	96.1774	95.6268	7.024266	32.02256
2193	6.20329	3.1929069	95.9614	95.4120	7.023884	32.01941
2194	6.20553	3.1926271	95.7273	95.1793	7.023744	32.01430
2195	6.20630	3.1922044	95.5080	94.9613	7.023861	32.00899
2196	6.20584	3.1921422	95.2887	94.7433	7.023944	32.00884
2197	6.20533	3.1920179	95.0543	94.5103	7.024065	32.00805
2198	6.20482	3.1918065	94.8321	94.2895	7.024231	32.00628
2199	6.20416	3.1916822	94.6069	94.0656	7.024371	32.00563
2200	6.20370	3.1917132	94.3906	93.8506	7.024407	32.00651
2201	6.20390	3.1921357	94.1715	93.6328	7.024162	32.01112
2202	6.20599	3.1923531	93.9522	93.4148	7.023789	32.01167
2203	6.20869	3.1925643	93.7179	93.1819	7.023343	32.01158
2204	6.21145	3.1928128	93.4926	92.9580	7.022871	32.01186
2205	6.21445	3.1930240	93.2826	92.7492	7.022388	32.01147
2206	6.21705	3.1931172	93.0511	92.5191	7.022015	32.01017
2207	6.21904	3.1927504	92.8293	92.2985	7.021952	32.00433
2208	6.21950	3.1924147	92.6129	92.0835	7.022061	32.00028
2209	6.21853	3.1912277	92.3819	91.8539	7.022780	31.98812
2210	6.21430	3.1899540	92.1625	91.6357	7.023946	31.97807
2211	6.20640	3.1890097	91.9401	91.4147	7.025397	31.97512
2212	6.19921	3.1890656	91.7241	91.1999	7.026251	31.98260
2213	6.19641	3.1890966	91.4895	90.9667	7.026577	31.98569
2214	6.19661	3.1890965	91.2645	90.7430	7.026547	31.98561
2215	6.19845	3.1901650	91.0482	90.5281	7.025771	31.99585
2216	6.20548	3.1907116	90.8195	90.3007	7.024619	31.99541
2217	6.21512	3.1911961	90.5978	90.0803	7.023178	31.99183
2218	6.22435	3.1914321	90.3725	89.8563	7.021915	31.98588
2219	6.23154	3.1915625	90.1530	89.6381	7.020956	31.98067
2220	6.23715	3.1917425	89.9279	89.4144	7.020168	31.97750
2221	6.24240	3.1918978	89.6964	89.1843	7.019436	31.97440
2222	6.24659	3.1919536	89.4713	88.9605	7.018887	31.97119
2223	6.24985	3.1920778	89.2521	88.7425	7.018416	31.96961
2224	6.25261	3.1921398	89.0267	88.5185	7.018040	31.96781
2225	6.25480	3.1922019	88.8015	88.2947	7.017733	31.96655
2226	6.25638	3.1922329	88.5764	88.0709	7.017518	31.96551
2227	6.25766	3.1922328	88.3602	87.8559	7.017356	31.96442
2228	6.25883	3.1922576	88.1289	87.6260	7.017194	31.96370
2229	6.26001	3.1923507	87.9095	87.4079	7.016997	31.96373
2230	6.26123	3.1925060	87.6813	87.1811	7.016762	31.96441
2231	6.26271	3.1925929	87.4650	86.9661	7.016531	31.96409
2232	6.26419	3.1929284	87.2429	86.7453	7.016173	31.96652
2233	6.26710	3.1939663	87.0238	86.5275	7.015283	31.97540
2234	6.27358	3.1951846	86.8014	86.3064	7.013861	31.98292
2235	6.28415	3.1963408	86.5762	86.0825	7.011969	31.98592
2236	6.29585	3.1969562	86.3206	85.8285	7.010212	31.98187
2237	6.30694	3.1978950	86.0678	85.5772	7.008368	31.98198
2238	6.31782	3.1987468	85.8394	85.3501	7.006593	31.98130
2239	6.32845	3.1995738	85.6234	85.1353	7.004863	31.98058
2240	6.33914	3.2002765	85.3949	84.9082	7.003191	31.97844
2241	6.34896	3.2004568	85.1668	84.6815	7.001889	31.97133
2242	6.35643	3.2003011	84.9383	84.4543	7.001046	31.96271
2243	6.36226	3.2001517	84.7195	84.2368	7.000400	31.95570
2244	6.36676	3.1996913	84.4849	84.0035	7.000075	31.94650
2245	6.36901	3.1989013	84.2566	83.7767	7.000193	31.93576
2246	6.36917	3.1978875	84.0404	83.5617	7.000681	31.92451
2247	6.36778	3.1971909	83.8183	83.3409	7.001197	31.91821
2248	6.36599	3.1976200	83.5897	83.1137	7.001196	31.92474
2249	6.36876	3.1990814	83.3677	82.8929	7.000114	31.93841
2250	6.37889	3.2014325	83.1455	82.6721	6.997679	31.95502
2251	6.39527	3.2035416	82.9292	82.4570	6.994602	31.96308
2252	6.41791	3.2054333	82.7009	82.2301	6.990871	31.96288
2253	6.44251	3.2056509	82.4756	82.0061	6.987745	31.94236
2254	6.45922	3.2029558	82.2473	81.7792	6.987049	31.89710
2255	6.46266	3.1996895	82.0190	81.5522	6.988263	31.85798
2256	6.45425	3.1969842	81.8028	81.3372	6.990648	31.83609
2257	6.44030	3.1955170	81.5805	81.1163	6.993091	31.83302
2258	6.42790	3.1946032	81.3555	80.8926	6.995068	31.83461
2259	6.41811	3.1934160	81.1269	80.6654	6.996862	31.83074
2260	6.41115	3.1938076	80.9015	80.4413	6.997515	31.84167
2261	6.41084	3.1953927	80.6761	80.2173	6.996750	31.85957
2262	6.41878	3.1970091	80.4603	80.0027	6.994957	31.87010
2263	6.43251	3.1990175	80.2287	79.7725	6.992257	31.87955
2264	6.45158	3.2010327	80.0037	79.5488	6.988902	31.88408
2265	6.47364	3.2019469	79.7814	79.3277	6.985738	31.87368
2266	6.49293	3.2021395	79.5590	79.1067	6.983276	31.85791
2267	6.50699	3.2023758	79.3308	78.8798	6.981432	31.84751
2268	6.51783	3.2022822	79.0934	78.6438	6.980149	31.83650
2269	6.52656	3.2016412	78.8712	78.4229	6.979397	31.82141
2270	6.53252	3.2012180	78.6520	78.2050	6.978876	31.81131
2271	6.53652	3.2009131	78.4268	77.9811	6.978534	31.80433
2272	6.53956	3.2003904	78.1922	77.7479	6.978419	31.79587
2273	6.54248	3.2001166	77.9760	77.5330	6.978194	31.79024
2274	6.54505	3.1999051	77.7478	77.3061	6.977980	31.78563
2275	6.54752	3.1995069	77.5256	77.0852	6.977873	31.77906
2276	6.55024	3.1993948	77.3004	76.8613	6.977591	31.77540
2277	6.55338	3.1993263	77.0751	76.6373	6.977237	31.77184
2278	6.55616	3.1991707	76.8497	76.4133	6.976971	31.76766
2279	6.55919	3.1991706	76.6184	76.1834	6.976595	31.76495
2280	6.56310	3.1989901	76.3747	75.9410	6.976203	31.75945
2281	6.56592	3.1987723	76.1464	75.7141	6.975961	31.75454
2282	6.56752	3.1981939	75.9181	75.4871	6.976050	31.74681
2283	6.56741	3.1979202	75.6987	75.2690	6.976195	31.74400
2284	6.56716	3.1980694	75.4706	75.0422	6.976147	31.74598
2285	6.56798	3.1981004	75.2392	74.8122	6.976026	31.74567
2286	6.56993	3.1981438	75.0140	74.5883	6.975761	31.74444
2287	6.57204	3.1982557	74.7827	74.3584	6.975442	31.74382
2288	6.57420	3.1987407	74.5573	74.1344	6.974931	31.74725
2289	6.57785	3.1989582	74.3350	73.9133	6.974372	31.74636
2290	6.58176	3.1991385	74.1036	73.6833	6.973799	31.74482
2291	6.58516	3.1992939	73.8815	73.4624	6.973302	31.74348
2292	6.58824	3.1993809	73.6622	73.2444	6.972877	31.74168
2293	6.59071	3.1992004	73.4337	73.0173	6.972660	31.73751
2294	6.59205	3.1987712	73.2057	72.7906	6.972706	31.73166
2295	6.59236	3.1985596	72.9863	72.5725	6.972769	31.72916
2296	6.59210	3.1981740	72.7519	72.3395	6.972988	31.72527
2297	6.59102	3.1975831	72.5235	72.1124	6.973410	31.71988
2298	6.58901	3.1967934	72.3075	71.8977	6.974045	31.71317
2299	6.58593	3.1965135	72.0761	71.6676	6.974557	31.71306
2300	6.58346	3.1959664	71.8631	71.4559	6.975127	31.70944
2301	6.58114	3.1956617	71.6286	71.2227	6.975557	31.70835
2302	6.57970	3.1955994	71.4032	70.9987	6.975759	31.70910
2303	6.57909	3.1948098	71.1779	70.7747	6.976224	31.70111
2304	6.57724	3.1938339	70.9467	70.5448	6.976933	31.69220
2305	6.57225	3.1918264	70.7245	70.3239	6.978541	31.67487
2306	6.56232	3.1904221	70.4992	70.0999	6.980452	31.66873
2307	6.55050	3.1893039	70.2769	69.8790	6.982455	31.66749
2308	6.53997	3.1884529	70.0485	69.6519	6.984167	31.66799
2309	6.53134	3.1883597	69.8232	69.4279	6.985267	31.67507
2310	6.52707	3.1891176	69.5949	69.2009	6.985405	31.68747
2311	6.52856	3.1891796	69.3666	68.9740	6.985186	31.68688
2312	6.53118	3.1895771	69.1444	68.7530	6.984662	31.68893
2313	6.53426	3.1902107	68.9221	68.5320	6.983962	31.69314
2314	6.53950	3.1909065	68.6937	68.3050	6.982967	31.69604
2315	6.54624	3.1912481	68.4717	68.0842	6.981967	31.69367
2316	6.55266	3.1916705	68.2463	67.8601	6.980964	31.69246
2317	6.55939	3.1917946	68.0239	67.6390	6.980073	31.68769
2318	6.56484	3.1917945	67.7956	67.4121	6.979401	31.68275
2319	6.56854	3.1915831	67.5763	67.1941	6.979049	31.67710
2320	6.57076	3.1912475	67.3482	66.9673	6.978941	31.67147
2321	6.57137	3.1903651	67.1259	66.7463	6.979301	31.66130
2322	6.56952	3.1893027	66.9039	66.5255	6.980054	31.65145
2323	6.56649	3.1893026	66.6691	66.2921	6.980420	31.65436
2324	6.56531	3.1885074	66.4378	66.0622	6.980957	31.64683
2325	6.56417	3.1880229	66.2157	65.8414	6.981333	31.64265
2326	6.56191	3.1853523	65.9872	65.6142	6.982940	31.61550
2327	6.55446	3.1841664	65.7587	65.3870	6.984442	31.60946
2328	6.54588	3.1828938	65.5307	65.1604	6.986127	31.60352
2329	6.53873	3.1815903	65.3084	64.9393	6.987651	31.59589
2330	6.53211	3.1803304	65.0799	64.7122	6.989090	31.58827
2331	6.52579	3.1790459	64.8518	64.4854	6.990505	31.58009
2332	6.51988	3.1779230	64.6263	64.2612	6.991788	31.57330
2333	6.51392	3.1769862	64.4104	64.0466	6.992985	31.56860
2334	6.50838	3.1758945	64.1817	63.8192	6.994210	31.56182
2335	6.50309	3.1751068	63.9625	63.6013	6.995250	31.55814
2336	6.49847	3.1748029	63.7374	63.3775	6.995966	31.55916
2337	6.49524	3.1743812	63.5181	63.1595	6.996571	31.55761
2338	6.49298	3.1742323	63.2928	62.9355	6.996919	31.55817
2339	6.49123	3.1738106	63.0827	62.7265	6.997341	31.55523
2340	6.48975	3.1734757	62.8514	62.4966	6.997687	31.55303
2341	6.48851	3.1730230	62.6351	62.2816	6.998062	31.54929
2342	6.48718	3.1724154	62.4101	62.0579	6.998526	31.54394
2343	6.48569	3.1718016	62.1939	61.8429	6.999013	31.53865
2344	6.48333	3.1710886	61.9684	61.6187	6.999657	31.53309
2345	6.48066	3.1706361	61.7463	61.3979	7.000208	31.53068
2346	6.47815	3.1697311	61.5268	61.1797	7.000968	31.52314
2347	6.47538	3.1692787	61.3017	60.9559	7.001532	31.52082
2348	6.47276	3.1688696	61.0764	60.7318	7.002055	31.51883
2349	6.47040	3.1686093	60.8602	60.5169	7.002472	31.51825
2350	6.46892	3.1684295	60.6348	60.2928	7.002741	31.51775
2351	6.46820	3.1684914	60.4126	60.0720	7.002793	31.51919
2352	6.46933	3.1686711	60.1874	59.8481	7.002559	31.52024
2353	6.47256	3.1687329	59.9682	59.6301	7.002125	31.51804
2354	6.47661	3.1689311	59.7462	59.4094	7.001521	31.51658
2355	6.48302	3.1691231	59.5208	59.1853	7.000629	31.51288
2356	6.49046	3.1689123	59.3046	58.9704	6.999814	31.50380
2357	6.49852	3.1688501	59.0825	58.7495	6.998847	31.49579
2358	6.50689	3.1688810	58.8661	58.5344	6.997796	31.48852
2359	6.51500	3.1686391	58.6286	58.2982	6.996913	31.47849
2360	6.52353	3.1685460	58.4093	58.0802	6.995905	31.46972
2361	6.53134	3.1683971	58.1962	57.8683	6.995014	31.46099
2362	6.53868	3.1682483	57.9801	57.6535	6.994180	31.45270
2363	6.54557	3.1681304	57.7548	57.4295	6.993386	31.44517
2364	6.55179	3.1680373	57.5478	57.2236	6.992663	31.43853
2365	6.55729	3.1680062	57.3255	57.0027	6.991997	31.43323
2366	6.56176	3.1679751	57.1034	56.7818	6.991457	31.42889
2367	6.56546	3.1679750	56.8812	56.5609	6.990997	31.42559
2368	6.56829	3.1679439	56.6469	56.3279	6.990660	31.42276
2369	6.57029	3.1680058	56.4334	56.1157	6.990378	31.42169
2370	6.57209	3.1680057	56.2144	55.8979	6.990152	31.42014
2371	6.57379	3.1680676	55.9859	55.6708	6.989907	31.41937
2372	6.57523	3.1680675	55.7698	55.4559	6.989726	31.41814
2373	6.57646	3.1681294	55.5447	55.2321	6.989538	31.41779
2374	6.57739	3.1681293	55.3191	55.0078	6.989419	31.41705
2375	6.57826	3.1681293	55.1031	54.7931	6.989307	31.41634
2376	6.57898	3.1681292	54.8809	54.5721	6.989214	31.41579
2377	6.57986	3.1680672	54.6523	54.3449	6.989133	31.41441
2378	6.58048	3.1679122	54.4271	54.1210	6.989129	31.41225
2379	6.58176	3.1677014	54.2111	53.9062	6.989072	31.40885
2380	6.58325	3.1674349	53.9919	53.6883	6.989017	31.40466
2381	6.58516	3.1670073	53.7666	53.4642	6.988992	31.39832
2382	6.58773	3.1668275	53.5563	53.2552	6.988761	31.39409
2383	6.58999	3.1663814	53.3280	53.0282	6.988700	31.38722
2384	6.59189	3.1658361	53.1150	52.8164	6.988734	31.37959
2385	6.59344	3.1655944	52.8927	52.5954	6.988660	31.37563
2386	6.59462	3.1652908	52.6763	52.3803	6.988661	31.37131
2387	6.59544	3.1648076	52.4634	52.1686	6.988797	31.36536
2388	6.59647	3.1646279	52.2380	51.9445	6.988755	31.36255
2389	6.60069	3.1644172	52.0192	51.7269	6.988336	31.35647
2390	6.60677	3.1639959	51.8026	51.5115	6.987795	31.34639
2391	6.61474	3.1637851	51.5774	51.2877	6.986914	31.33687
2392	6.62355	3.1635435	51.3614	51.0729	6.985947	31.32627
2393	6.63245	3.1634194	51.1449	50.8577	6.984909	31.31686
2394	6.64147	3.1636113	50.9138	50.6279	6.983700	31.31082
2395	6.65280	3.1641747	50.6915	50.4068	6.982022	31.30674
2396	6.67109	3.1650478	50.4721	50.1887	6.979335	31.29968
2397	6.69249	3.1660448	50.2407	49.9586	6.976208	31.29115
2398	6.71617	3.1677297	50.0248	49.7440	6.972462	31.28807
2399	6.74858	3.1688943	49.8022	49.5226	6.967907	31.27133
2400	6.78201	3.1698111	49.5740	49.2957	6.963356	31.25099
2401	6.81065	3.1704492	49.3609	49.0839	6.959532	31.23198
2402	6.83346	3.1727426	49.1448	48.8690	6.955608	31.23633
2403	6.86017	3.1747389	48.9163	48.6418	6.951359	31.23390
2404	6.89182	3.1763076	48.6941	48.4209	6.946722	31.22233
2405	6.92485	3.1794588	48.4750	48.2030	6.941148	31.22672
2406	6.96636	3.1802464	48.2587	47.9880	6.935707	31.19773
2407	7.00198	3.1812141	48.0364	47.7669	6.930898	31.17607
2408	7.03244	3.1821261	47.8173	47.5491	6.926750	31.15850
2409	7.06011	3.1825788	47.5980	47.3310	6.923167	31.13851
2410	7.08223	3.1830938	47.3758	47.1101	6.920230	31.12421
2411	7.10202	3.1835156	47.1503	46.8859	6.917622	31.11103
2412	7.11916	3.1840307	46.9281	46.6650	6.915291	31.10125
2413	7.13360	3.1843657	46.7089	46.4470	6.913376	31.09197
2414	7.14621	3.1848808	46.4929	46.2322	6.911595	31.08627
2415	7.15909	3.1851290	46.2766	46.0172	6.909912	31.07746
2416	7.17078	3.1854579	46.0452	45.7872	6.908335	31.07060
2417	7.18294	3.1857930	45.8198	45.5630	6.906698	31.06339
2418	7.19766	3.1859729	45.5978	45.3423	6.904827	31.05220
2419	7.21421	3.1862211	45.3784	45.1241	6.902703	31.04011
2420	7.23087	3.1865313	45.1499	44.8970	6.900536	31.02859
2421	7.24535	3.1866740	44.9309	44.6792	6.898716	31.01724
2422	7.25889	3.1869781	44.7054	44.4550	6.896931	31.00848
2423	7.27134	3.1872511	44.4984	44.2492	6.895294	31.00036
2424	7.28269	3.1874621	44.2673	44.0194	6.893819	30.99257
2425	7.29158	3.1877663	44.0448	43.7981	6.892596	30.98798
2426	7.30001	3.1880395	43.8285	43.5831	6.891445	30.98347
2427	7.30828	3.1881884	43.6096	43.3654	6.890372	30.97777
2428	7.31571	3.1884181	43.3903	43.1474	6.889362	30.97369
2429	7.32330	3.1886788	43.1741	42.9324	6.888318	30.96980
2430	7.33126	3.1888588	42.9580	42.7176	6.887268	30.96471
2431	7.33891	3.1892252	42.7417	42.5025	6.886168	30.96191
2432	7.34850	3.1894984	42.5164	42.2785	6.884878	30.95638
2433	7.36103	3.1896783	42.2974	42.0608	6.883281	30.94722
2434	7.37366	3.1899826	42.0810	41.8456	6.881611	30.93930
2435	7.38625	3.1901688	41.8588	41.6246	6.880004	30.93017
2436	7.39836	3.1904047	41.6427	41.4097	6.878430	30.92199
2437	7.40980	3.1904666	41.4203	41.1887	6.877022	30.91255
2438	7.41935	3.1905286	41.1918	40.9614	6.875840	30.90481
2439	7.42749	3.1906216	40.9758	40.7467	6.874814	30.89865
2440	7.43479	3.1907457	40.7504	40.5226	6.873873	30.89358
2441	7.44235	3.1909569	40.5433	40.3166	6.872861	30.88920
2442	7.45018	3.1911058	40.3151	40.0897	6.871846	30.88393
2443	7.45853	3.1912300	40.0900	39.8659	6.870779	30.87793
2444	7.46657	3.1913354	39.8645	39.6416	6.869760	30.87201
2445	7.47393	3.1913477	39.6482	39.4266	6.868867	30.86569
2446	7.48129	3.1914408	39.4230	39.2027	6.867936	30.86025
2447	7.48760	3.1914407	39.2040	38.9849	6.867175	30.85474
2448	7.49449	3.1915027	38.9877	38.7699	6.866315	30.84938
2449	7.50238	3.1915025	38.7653	38.5487	6.865365	30.84247
2450	7.50885	3.1916515	38.5460	38.3306	6.864514	30.83841
2451	7.51621	3.1917135	38.3358	38.1217	6.863598	30.83263
2452	7.52484	3.1917755	38.1137	37.9008	6.862530	30.82574
2453	7.53458	3.1918188	37.8824	37.6709	6.861338	30.81766
2454	7.54453	3.1918684	37.6539	37.4436	6.860118	30.80947
2455	7.55622	3.1915948	37.4377	37.2286	6.858844	30.79629
2456	7.56976	3.1909856	37.2184	37.0106	6.857507	30.77789
2457	7.58388	3.1909854	37.0055	36.7989	6.855813	30.76548
2458	7.59553	3.1903763	36.7861	36.5808	6.854702	30.74878
2459	7.60818	3.1899163	36.5641	36.3600	6.853401	30.73279
2460	7.61963	3.1895558	36.3475	36.1446	6.852198	30.71893
2461	7.63002	3.1891208	36.1284	35.9268	6.851156	30.70522
2462	7.64052	3.1889466	35.9121	35.7117	6.849978	30.69420
2463	7.64976	3.1887601	35.6900	35.4909	6.848957	30.68417
2464	7.65863	3.1885488	35.4680	35.2701	6.847992	30.67420
2465	7.66676	3.1882132	35.2455	35.0489	6.847173	30.66356
2466	7.67558	3.1878217	35.0295	34.8341	6.846299	30.65173
2467	7.68552	3.1876662	34.8134	34.6192	6.845181	30.64143
2468	7.69455	3.1873058	34.5819	34.3890	6.844267	30.62975
2469	7.70290	3.1870635	34.3688	34.1771	6.843379	30.61993
2470	7.71052	3.1867590	34.1495	33.9591	6.842608	30.61010
2471	7.71876	3.1864856	33.9302	33.7410	6.841747	30.60004
2472	7.72675	3.1863613	33.7170	33.5290	6.840848	30.59181
2473	7.73347	3.1861500	33.4978	33.3111	6.840141	30.58376
2474	7.73934	3.1858456	33.2787	33.0932	6.839578	30.57548
2475	7.74574	3.1856653	33.0684	32.8841	6.838895	30.56804
2476	7.75172	3.1852678	32.8524	32.6693	6.838363	30.55867
2477	7.75802	3.1848827	32.6331	32.4512	6.837787	30.54916
2478	7.76464	3.1838395	32.4140	32.2334	6.837482	30.53239
2479	7.77253	3.1829889	32.1885	32.0091	6.836934	30.51656
2480	7.78010	3.1812011	31.9725	31.7944	6.836863	30.49107
2481	7.78751	3.1795627	31.7593	31.5824	6.836741	30.46731
2482	7.79504	3.1786256	31.5399	31.3642	6.836277	30.45090
2483	7.80081	3.1771738	31.3237	31.1493	6.836262	30.43057
2484	7.80537	3.1760882	31.1015	30.9284	6.836221	30.41519
2485	7.80855	3.1745996	30.8822	30.7103	6.836532	30.39674
2486	7.81162	3.1727579	30.6602	30.4895	6.837022	30.37465
2487	7.81470	3.1709166	30.4347	30.2653	6.837511	30.35257
2488	7.81793	3.1692802	30.2125	30.0443	6.837884	30.33252
2489	7.81957	3.1668387	29.9932	29.8263	6.838824	30.30534
2490	7.82090	3.1650235	29.7770	29.6112	6.839510	30.28506
2491	7.82212	3.1628619	29.5490	29.3846	6.840370	30.26122
2492	7.82249	3.1597599	29.3388	29.1755	6.841771	30.22815
2493	7.82180	3.1563311	29.1133	28.9513	6.843451	30.19256
2494	7.82047	3.1508072	28.9031	28.7423	6.846188	30.13534
2495	7.81888	3.1491006	28.6811	28.5216	6.847172	30.11876
2496	7.81698	3.1450274	28.4710	28.3126	6.849302	30.07740
2497	7.81459	3.1424881	28.2456	28.0885	6.850772	30.05269
2498	7.81205	3.1394061	28.0111	27.8553	6.852515	30.02238
2499	7.80903	3.1375167	27.7706	27.6162	6.853758	30.00509
2500	7.80600	3.1360968	27.5574	27.4042	6.854782	29.99276
2501	7.80251	3.1336219	27.3382	27.1862	6.856357	29.96968
2502	7.79795	3.1327580	27.1160	26.9653	6.857307	29.96455
2503	7.79376	3.1312835	26.9028	26.7533	6.858498	29.95264
2504	7.79000	3.1309071	26.6866	26.5383	6.859124	29.95198
2505	7.78773	3.1303149	26.4736	26.3265	6.859672	29.94776
2506	7.78635	3.1297782	26.2391	26.0933	6.860085	29.94336
2507	7.78598	3.1290504	26.0197	25.8751	6.860466	29.93607
2508	7.78587	3.1277861	25.7976	25.6543	6.861067	29.92288
2509	7.78423	3.1253754	25.5753	25.4332	6.862391	29.89888
2510	7.77909	3.1223737	25.3591	25.2182	6.864414	29.87162
2511	7.77099	3.1186402	25.1398	25.0002	6.867141	29.83914
2512	7.76151	3.1149700	24.9174	24.7791	6.870005	29.80851
2513	7.75336	3.1126307	24.6953	24.5581	6.872087	29.79081
2514	7.74992	3.1101813	24.4639	24.3280	6.873649	29.76793
2515	7.75617	3.1080525	24.2416	24.1070	6.873887	29.74017
2516	7.77438	3.1051246	24.0285	23.8951	6.873048	29.69378
2517	7.79970	3.1032919	23.8060	23.6739	6.870832	29.65298
2518	7.82180	3.0982948	23.5869	23.4560	6.870486	29.58156
2519	7.84121	3.0922693	23.3646	23.2349	6.870944	29.50166
2520	7.85452	3.0878374	23.1363	23.0079	6.871393	29.44380
2521	7.86206	3.0821875	22.9199	22.7927	6.873113	29.37802
2522	7.86445	3.0791587	22.7040	22.5780	6.874233	29.34420
2523	7.86344	3.0745871	22.4846	22.3598	6.876487	29.29699
2524	7.86068	3.0723451	22.2593	22.1358	6.877866	29.27579
2525	7.85734	3.0682976	22.0494	21.9271	6.880161	29.23605
2526	7.85277	3.0645458	21.8240	21.7029	6.882468	29.20046
2527	7.84821	3.0623433	21.5954	21.4756	6.884051	29.18118
2528	7.84413	3.0587350	21.3730	21.2545	6.886233	29.14669
2529	7.83994	3.0556660	21.1481	21.0309	6.888178	29.11797
2530	7.83415	3.0522501	20.9225	20.8065	6.890480	29.08691
2531	7.82641	3.0502281	20.7033	20.5885	6.892371	29.07216
2532	7.81851	3.0486340	20.4719	20.3584	6.894081	29.06204
2533	7.81109	3.0465702	20.2435	20.1313	6.895954	29.04658
2534	7.80383	3.0444214	20.0152	19.9043	6.897849	29.03008
2535	7.79943	3.0436463	19.7808	19.6712	6.898748	29.02567
2536	7.79816	3.0421389	19.5586	19.4503	6.899607	29.01094
2537	7.80081	3.0410893	19.3240	19.2170	6.899769	28.99778
2538	7.80770	3.0400399	19.1016	18.9958	6.899411	28.98110
2539	7.81602	3.0396066	18.8704	18.7659	6.898588	28.96973
2540	7.82334	3.0386549	18.6388	18.5356	6.898131	28.95374
2541	7.83161	3.0379046	18.4075	18.3056	6.897462	28.93908
2542	7.84004	3.0375324	18.1852	18.0845	6.896596	28.92828
2543	7.84726	3.0368981	17.9417	17.8424	6.896002	28.91573
2544	7.85383	3.0362882	17.7131	17.6150	6.895475	28.90397
2545	7.85951	3.0348248	17.4819	17.3851	6.895458	28.88399
2546	7.86530	3.0329167	17.2535	17.1580	6.895636	28.85925
2547	7.87294	3.0315819	17.0221	16.9279	6.895316	28.83901
2548	7.88016	3.0300584	16.7997	16.7068	6.895137	28.81714
2549	7.88616	3.0279809	16.5683	16.4766	6.895365	28.79047
2550	7.89189	3.0265312	16.3369	16.2466	6.895333	28.77063
2551	7.89625	3.0252888	16.1085	16.0194	6.895373	28.75410
2552	7.89806	3.0233222	15.8741	15.7863	6.896065	28.73207
2553	7.89779	3.0216908	15.6548	15.5683	6.896855	28.71525
2554	7.89365	3.0194634	15.4082	15.3230	6.898400	28.69538
2555	7.88632	3.0181310	15.1828	15.0988	6.899921	28.68750
2556	7.87841	3.0165737	14.9546	14.8719	6.901619	28.67774
2557	7.86960	3.0135513	14.7200	14.6386	6.904114	28.65333
2558	7.85760	3.0106698	14.4825	14.4024	6.906937	28.63300
2559	7.84450	3.0089135	14.2512	14.1725	6.909373	28.62539
2560	7.83325	3.0068720	14.0228	13.9453	6.911715	28.61325
2561	7.82376	3.0043816	13.7852	13.7090	6.914052	28.59495
2562	7.81501	3.0037803	13.5477	13.4728	6.915411	28.59589
2563	7.80881	3.0014851	13.3192	13.2456	6.917252	28.57693
2564	7.80367	2.9993727	13.0909	13.0185	6.918876	28.55903
2565	7.79965	2.9981770	12.8503	12.7793	6.919931	28.54985
2566	7.79710	2.9958955	12.6221	12.5523	6.921314	28.52804
2567	7.79567	2.9928808	12.3936	12.3252	6.922903	28.49761
2568	7.79514	2.9897217	12.1591	12.0920	6.924448	28.46493
2569	7.79525	2.9875699	11.9369	11.8710	6.925442	28.44232
2570	7.79578	2.9864063	11.7083	11.6437	6.925918	28.42975
2571	7.79647	2.9837647	11.4894	11.4260	6.927070	28.40152
2572	7.79800	2.9805123	11.2517	11.1896	6.928402	28.36620
2573	7.80071	2.9784295	11.0172	10.9564	6.929040	28.34223
2574	7.80420	2.9763836	10.7797	10.7202	6.929561	28.31800
2575	7.80850	2.9750158	10.5452	10.4870	6.929665	28.30025
2576	7.81199	2.9712771	10.3047	10.2478	6.930980	28.25827
2577	7.81666	2.9697833	10.0702	10.0146	6.931096	28.23891
2578	7.82069	2.9677517	9.8265	9.7723	6.931543	28.21444
2579	7.82381	2.9665123	9.5891	9.5362	6.931730	28.19901
2580	7.82525	2.9626085	9.3485	9.2969	6.933379	28.15700
2581	7.82535	2.9603070	9.1141	9.0638	6.934442	28.13287
2582	7.82472	2.9589481	8.8766	8.8276	6.935154	28.11923
2583	7.82297	2.9558991	8.6360	8.5884	6.936800	28.08876
2584	7.81941	2.9541728	8.4014	8.3551	6.938049	28.07361
2585	7.81554	2.9520548	8.1671	8.1220	6.939523	28.05461
2586	7.81040	2.9480375	7.9327	7.8890	6.942049	28.01671
2587	7.80399	2.9454690	7.7042	7.6617	6.944055	27.99501
2588	7.79753	2.9417142	7.4667	7.4255	6.946625	27.96091
2589	7.79000	2.9360643	7.2290	7.1891	6.950222	27.90778
2590	7.78100	2.9348482	7.0009	6.9623	6.951921	27.90232
2591	7.77343	2.9291430	6.7755	6.7382	6.955554	27.84862
2592	7.76405	2.9265146	6.5470	6.5110	6.957967	27.82862
2593	7.75569	2.9225284	6.3339	6.2990	6.960895	27.79356
2594	7.74765	2.9201124	6.1117	6.0780	6.963044	27.77471
2595	7.74003	2.9168503	5.9015	5.8690	6.965540	27.74663
2596	7.73220	2.9110022	5.6915	5.6601	6.969285	27.69159
2597	7.72157	2.9051825	5.4842	5.4540	6.973374	27.63905
2598	7.70903	2.9011653	5.2802	5.2511	6.976855	27.60690
2599	7.69709	2.8990915	5.0672	5.0393	6.979346	27.59469
2600	7.68726	2.8949696	4.8630	4.8363	6.982540	27.55928
2601	7.67775	2.8914485	4.6622	4.6366	6.985411	27.52991
2602	7.66798	2.8873785	4.4641	4.4395	6.988578	27.49498
2603	7.65800	2.8848239	4.2603	4.2368	6.991055	27.47611
2604	7.64892	2.8813852	4.0624	4.0400	6.993839	27.44724
2605	7.63910	2.8755756	3.8553	3.8341	6.997844	27.39404
2606	7.62585	2.8716633	3.6725	3.6523	7.001390	27.36343
2607	7.61172	2.8630033	3.4746	3.4555	7.007311	27.28364
2608	7.59289	2.8573745	3.2829	3.2648	7.012397	27.23933
2609	7.57455	2.8530901	3.0909	3.0739	7.016788	27.20874
2610	7.55959	2.8494690	2.9021	2.8861	7.020432	27.18244
2611	7.54758	2.8441000	2.7102	2.6953	7.024536	27.13545
2612	7.53558	2.8423449	2.5275	2.5136	7.026916	27.12643
2613	7.52637	2.8397516	2.3418	2.3290	7.029338	27.10642
2614	7.51805	2.8388239	2.1438	2.1321	7.030850	27.10322
2615	7.51105	2.8390737	1.9580	1.9473	7.031629	27.11138
2616	7.50564	2.8398111	1.7691	1.7594	7.031971	27.12345
2617	7.50106	2.8416727	1.5711	1.5625	7.031666	27.14669
2618	7.49754	2.8426305	1.3703	1.3628	7.031658	27.15961
2619	7.49549	2.8369926	1.1875	1.1810	7.034619	27.10193
2620	7.49354	2.7447545	1.0109	1.0053	7.079091	26.13469
2621	7.47551	2.3853396	0.8496	0.8449	7.254653	22.41319
2622	7.42145	2.4153789	0.7368	0.7328	7.247723	22.75818
2623	7.38263	2.2255373	0.6362	0.6327	7.345486	20.83017
2624	7.33278	1.7975037	0.5574	0.5543	7.562184	16.52331
2625	7.25047	1.7540944	0.4505	0.4480	7.596564	16.12779
2626	7.18847	1.7579424	0.3500	0.3481	7.604559	16.19530
2627	7.15039	1.6558207	0.2466	0.2452	7.661225	15.19161
2628	7.11775	1.6264267	0.1917	0.1906	7.681128	14.91288
2629	7.09754	1.6528461	0.1946	0.1936	7.671312	15.18517
2630	7.09109	1.7274621	0.1914	0.1904	7.635280	15.93492
2631	7.10025	1.7690619	0.1946	0.1936	7.613142	16.34851
2632	7.11953	1.9209152	0.1916	0.1905	7.534756	17.87268
2633	7.14647	1.9699913	0.1854	0.1844	7.506285	18.35684
2634	7.18309	2.0998813	0.1913	0.1902	7.436564	19.66103
2635	7.21734	2.1994439	0.1943	0.1932	7.382456	20.66163
2636	7.25612	2.2976266	0.1882	0.1872	7.328625	21.64869
2637	7.29378	1.7354485	0.1883	0.1873	7.598820	15.92151
2638	7.32184	0.3595088	0.1912	0.1901	8.260217	2.93108
2639	7.32896	0.3997147	0.1912	0.1901	8.240120	3.28017
2640	7.33069	0.3814602	0.1883	0.1873	8.248273	3.12090
2641	7.33126	0.3572566	0.1880	0.1870	8.259387	2.91079
2642	7.33137	0.3260809	0.1942	0.1932	8.273765	2.64181
2643	7.33116	0.2930051	0.1881	0.1871	8.288999	2.35855
2644	7.33090	0.2833608	0.1939	0.1929	8.293463	2.27640
2645	7.33090	0.2786556	0.1880	0.1870	8.295613	2.23639
2646	7.33090	0.2678025	0.1911	0.1901	8.300562	2.14428
2647	7.33111	0.2494676	0.1880	0.1870	8.308857	1.98926
2648	7.33158	0.2451888	0.1909	0.1898	8.310702	1.95317
2649	7.33200	0.2266248	0.1849	0.1839	8.319013	1.79723
2650	7.33252	0.2939707	0.1938	0.1927	8.288283	2.36670
2651	7.33048	0.2838297	0.1846	0.1836	8.293333	2.28042
2652	7.32765	0.2487922	0.1876	0.1866	8.309860	1.98376
