Scan Count	Temperature [ITS-90, deg C]	Conductivity [S/m]	Pressure, Strain Gauge [db]	Depth [salt water, m]	Oxygen Saturation, Weiss [ml/l]	Salinity, Practical [PSU]
1	17.48992	0.0007593	0.0926	0.0921	6.683993	0.01111
2	17.48792	0.0007593	0.0956	0.0951	6.684271	0.01111
3	17.47335	0.0007501	0.0926	0.0921	6.686299	0.01107
4	17.46279	0.0008611	0.0925	0.0920	6.687750	0.01152
5	17.45044	0.0010492	0.0925	0.0920	6.689437	0.01232
6	17.43947	0.0012712	0.0925	0.0920	6.690925	0.01330
7	17.44671	0.0013822	0.0925	0.0920	6.689897	0.01380
8	17.42631	0.0814954	0.1076	0.1070	6.674293	0.47255
9	14.65576	2.2984571	0.3846	0.3825	6.368740	17.71107
10	12.02015	3.2744452	1.1301	1.1239	6.319294	28.00547
11	11.82840	3.3007702	1.1849	1.1784	6.329774	28.40033
12	11.78331	3.2760979	1.0571	1.0513	6.343912	28.19963
13	11.67085	3.3158708	1.1271	1.1209	6.340796	28.66537
14	11.64982	3.3297398	1.3493	1.3419	6.337750	28.81439
15	11.54465	3.3224883	1.5136	1.5052	6.351708	28.82643
16	11.41935	3.3051121	1.5714	1.5628	6.371781	28.75663
17	11.33362	3.3034445	1.5806	1.5719	6.381625	28.80726
18	11.31093	3.3129373	1.5775	1.5688	6.380381	28.91669
19	11.28855	3.3069838	1.5714	1.5628	6.385096	28.87665
20	11.29765	3.3078970	1.5775	1.5688	6.383763	28.87836
21	11.29649	3.3081238	1.5806	1.5719	6.383800	28.88146
22	11.30798	3.3171232	1.5836	1.5749	6.379075	28.95947
23	11.31552	3.3236645	1.5806	1.5719	6.375729	29.01679
24	11.32074	3.3193997	1.5775	1.5689	6.376823	28.97147
25	11.30003	3.3257662	1.5745	1.5658	6.376572	29.04930
26	11.34843	3.3470883	1.5745	1.5658	6.363140	29.21735
27	11.41423	3.3626228	1.5715	1.5629	6.350146	29.31541
28	11.43838	3.3609746	1.5684	1.5598	6.348219	29.28038
29	11.46010	3.3728909	1.5715	1.5629	6.341334	29.37818
30	11.48795	3.3725035	1.5716	1.5629	6.338538	29.35235
31	11.51104	3.3919629	1.5746	1.5660	6.328635	29.52169
32	11.55633	3.3982231	1.5747	1.5661	6.321475	29.54596
33	11.59881	3.4010554	1.5778	1.5691	6.315935	29.53940
34	11.64174	3.4076662	1.5809	1.5722	6.308917	29.56882
35	11.68930	3.4107373	1.5779	1.5692	6.302776	29.56048
36	11.73352	3.4163922	1.5810	1.5723	6.296016	29.57961
37	11.76481	3.4193071	1.5780	1.5693	6.291652	29.58269
38	11.78607	3.4209914	1.5842	1.5755	6.288802	29.58193
39	11.82670	3.4243992	1.5842	1.5755	6.283291	29.58229
40	11.86884	3.4255862	1.5813	1.5726	6.278469	29.56019
41	11.90054	3.4244048	1.5844	1.5757	6.275625	29.52377
42	11.93338	3.4295960	1.5845	1.5758	6.270272	29.54735
43	11.97010	3.4308923	1.5846	1.5759	6.265987	29.53066
44	12.00371	3.4319142	1.5877	1.5790	6.262130	29.51382
45	12.03328	3.4313708	1.5878	1.5791	6.259278	29.48529
46	12.06091	3.4325589	1.5849	1.5762	6.255982	29.47480
47	12.08756	3.4332359	1.5880	1.5793	6.252981	29.46023
48	12.11233	3.4333251	1.5851	1.5764	6.250395	29.44158
49	12.13528	3.4329350	1.5852	1.5765	6.248175	29.41981
50	12.15611	3.4335802	1.5853	1.5766	6.245791	29.40957
51	12.17624	3.4345386	1.5915	1.5828	6.243364	29.40286
52	12.19530	3.4339760	1.5886	1.5799	6.241611	29.38256
53	12.21343	3.4337329	1.5918	1.5831	6.239837	29.36604
54	12.23038	3.4333046	1.5889	1.5801	6.238253	29.34870
55	12.24608	3.4331319	1.5921	1.5833	6.236703	29.33477
56	12.26072	3.4333682	1.5892	1.5804	6.235112	29.32555
57	12.27459	3.4329015	1.5893	1.5806	6.233859	29.31029
58	12.28793	3.4312785	1.5895	1.5807	6.233087	29.28451
59	12.30032	3.4314444	1.5896	1.5808	6.231754	29.27641
60	12.31242	3.4311185	1.5867	1.5780	6.230632	29.26389
61	12.32339	3.4300962	1.5838	1.5751	6.229882	29.24567
62	12.33365	3.4299237	1.5871	1.5784	6.228893	29.23605
63	12.34355	3.4292529	1.5902	1.5815	6.228124	29.22200
64	12.35256	3.4276944	1.5904	1.5817	6.227772	29.20028
65	12.36169	3.4272600	1.5906	1.5818	6.226994	29.18908
66	12.37028	3.4258616	1.5877	1.5790	6.226625	29.16920
67	12.37757	3.4250123	1.5879	1.5792	6.226190	29.15553
68	12.38372	3.4241377	1.5911	1.5824	6.225879	29.14250
69	12.38927	3.4229823	1.5913	1.5825	6.225733	29.12730
70	12.39435	3.4226822	1.5884	1.5797	6.225322	29.12053
71	12.39919	3.4218078	1.5885	1.5798	6.225145	29.10854
72	12.40343	3.4209781	1.5887	1.5800	6.225014	29.09743
73	12.40732	3.4198423	1.5889	1.5801	6.225031	29.08372
74	12.41066	3.4189618	1.5921	1.5834	6.225010	29.07283
75	12.41365	3.4179857	1.5923	1.5836	6.225061	29.06132
76	12.41616	3.4167100	1.5955	1.5867	6.225270	29.04735
77	12.41813	3.4158808	1.5957	1.5869	6.225371	29.03802
78	12.41999	3.4147074	1.5929	1.5841	6.225610	29.02553
79	12.42136	3.4136170	1.5930	1.5842	6.225868	29.01420
80	12.42214	3.4123547	1.5962	1.5874	6.226250	29.00171
81	12.42226	3.4114686	1.5965	1.5877	6.226562	28.99327
82	12.42250	3.4102002	1.5966	1.5878	6.227002	28.98114
83	12.42250	3.4096839	1.5968	1.5880	6.227191	28.97627
84	12.42286	3.4087089	1.5970	1.5882	6.227511	28.96682
85	12.42298	3.4073708	1.5942	1.5854	6.227988	28.95412
86	12.42274	3.4060839	1.5913	1.5825	6.228484	28.94219
87	12.42178	3.4051475	1.5976	1.5888	6.228925	28.93411
88	12.42071	3.4040583	1.5978	1.5890	6.229434	28.92468
89	12.41939	3.4029629	1.6010	1.5922	6.229971	28.91537
90	12.41790	3.4018868	1.5982	1.5894	6.230518	28.90639
91	12.41622	3.4006771	1.5923	1.5836	6.231133	28.89629
92	12.41383	3.3996776	1.5956	1.5868	6.231746	28.88872
93	12.41138	3.3984491	1.5958	1.5870	6.232448	28.87903
94	12.40881	3.3974754	1.6020	1.5932	6.233069	28.87183
95	12.40630	3.3964572	1.6053	1.5965	6.233701	28.86417
96	12.40349	3.3952482	1.5995	1.5907	6.234433	28.85495
97	12.40021	3.3941921	1.5966	1.5878	6.235159	28.84753
98	12.39704	3.3928499	1.5968	1.5880	6.235978	28.83732
99	12.39346	3.3917305	1.5971	1.5883	6.236758	28.82952
100	12.38951	3.3906876	1.6003	1.5915	6.237547	28.82272
101	12.38623	3.3896003	1.6066	1.5978	6.238285	28.81500
102	12.38264	3.3882969	1.6038	1.5950	6.239133	28.80547
103	12.37840	3.3873243	1.6010	1.5922	6.239928	28.79956
104	12.37422	3.3861866	1.6012	1.5924	6.240777	28.79205
105	12.36975	3.3852396	1.6014	1.5926	6.241587	28.78656
106	12.36551	3.3840958	1.6016	1.5928	6.242445	28.77903
107	12.36127	3.3830538	1.6049	1.5961	6.243266	28.77245
108	12.35685	3.3815291	1.6051	1.5963	6.244283	28.76147
109	12.35208	3.3805953	1.6054	1.5966	6.245120	28.75633
110	12.34761	3.3795537	1.6026	1.5938	6.245966	28.74994
111	12.34271	3.3784297	1.5998	1.5910	6.246886	28.74309
112	12.33782	3.3771534	1.6030	1.5942	6.247861	28.73480
113	12.33287	3.3763916	1.6033	1.5944	6.248655	28.73141
114	12.32804	3.3752299	1.6035	1.5947	6.249582	28.72415
115	12.32279	3.3743349	1.6037	1.5949	6.250456	28.71973
116	12.31767	3.3730338	1.6009	1.5921	6.251466	28.71138
117	12.31200	3.3720693	1.6012	1.5924	6.252409	28.70662
118	12.30640	3.3711302	1.6105	1.6016	6.253336	28.70205
119	12.30163	3.3700073	1.6077	1.5989	6.254244	28.69510
120	12.29657	3.3688845	1.6080	1.5991	6.255184	28.68838
121	12.29103	3.3680029	1.6082	1.5994	6.256084	28.68430
122	12.28597	3.3666393	1.6055	1.5966	6.257113	28.67531
123	12.27983	3.3657072	1.6056	1.5968	6.258094	28.67120
124	12.27370	3.3647752	1.6029	1.5941	6.259076	28.66709
125	12.26834	3.3637165	1.6061	1.5973	6.260024	28.66120
126	12.26280	3.3627657	1.6094	1.6005	6.260950	28.65645
127	12.25727	3.3617896	1.6126	1.6038	6.261887	28.65146
128	12.25150	3.3605158	1.6038	1.5950	6.262958	28.64385
129	12.09586	3.2921686	1.6040	1.5952	6.304652	28.11611
130	11.32260	3.2358230	1.6043	1.5955	6.409046	28.16374
131	11.15930	3.2355561	1.6349	1.6259	6.426954	28.28603
132	11.12211	3.2251146	2.1799	2.1679	6.435123	28.21332
133	10.76924	3.2029851	3.0810	3.0640	6.482797	28.26917
134	10.59603	3.1995476	4.1343	4.1115	6.503452	28.36923
135	10.51824	3.2005687	5.3823	5.3527	6.511735	28.43930
136	10.55273	3.2183505	6.7185	6.6815	6.500721	28.58659
137	10.52165	3.2187751	8.0335	7.9892	6.504027	28.61462
138	10.41329	3.2224736	9.3028	9.2515	6.514611	28.73580
139	10.39121	3.2234595	10.5478	10.4896	6.516691	28.76249
140	10.33084	3.2192519	11.7868	11.7217	6.525165	28.76815
141	10.19643	3.2275170	13.0377	12.9657	6.536824	28.95632
142	10.21181	3.2329973	14.3284	14.2492	6.532871	28.99794
143	10.16974	3.2262141	15.6282	15.5418	6.540391	28.96367
144	9.85989	3.2133575	16.9462	16.8524	6.580629	29.08342
145	9.75228	3.2153526	18.2733	18.1722	6.591996	29.18984
146	9.69703	3.2122513	19.6157	19.5071	6.599595	29.20291
147	9.49540	3.2040615	20.9520	20.8359	6.626064	29.28382
148	9.28160	3.2020360	22.2883	22.1647	6.651452	29.43796
149	9.10794	3.1958510	23.6185	23.4874	6.674161	29.51771
150	8.94067	3.1931061	24.9518	24.8132	6.694746	29.62795
151	8.87344	3.1908891	26.2850	26.1389	6.703553	29.66069
152	8.74528	3.1888162	27.6061	27.4526	6.719415	29.74605
153	8.29597	3.1720008	28.9942	28.8329	6.779765	29.95058
154	7.86631	3.1666334	30.3761	30.2070	6.833339	30.26247
155	7.71401	3.1616939	31.7733	31.5963	6.853922	30.34178
156	7.55579	3.1581433	33.2039	33.0189	6.874662	30.44150
157	7.46073	3.1548966	34.6133	34.4203	6.887712	30.48959
158	7.33136	3.1516578	36.0378	35.8367	6.904962	30.56818
159	7.18047	3.1465541	37.4837	37.2744	6.925804	30.64616
160	7.03554	3.1445542	38.9174	38.7000	6.944506	30.75285
161	6.96016	3.1428690	40.3572	40.1315	6.954593	30.80131
162	6.91311	3.1423820	41.8000	41.5662	6.960634	30.83752
163	6.83732	3.1413333	43.2641	43.0219	6.970493	30.89350
164	6.77258	3.1396302	44.7374	44.4868	6.979335	30.93257
165	6.69282	3.1372054	46.2259	45.9668	6.990408	30.97741
166	6.59248	3.1353554	47.7356	47.4679	7.003771	31.04735
167	6.55222	3.1349613	49.2759	48.9994	7.008990	31.07889
168	6.51122	3.1346413	50.7949	50.5096	7.014267	31.11197
169	6.47083	3.1345928	52.2590	51.9653	7.019337	31.14757
170	6.42786	3.1345258	53.7902	53.4877	7.024742	31.18535
171	6.40087	3.1346438	55.3457	55.0342	7.028073	31.21062
172	6.34907	3.1351137	56.8553	56.5352	7.034315	31.26255
173	6.28447	3.1358369	58.3743	58.0454	7.042031	31.32919
174	6.23456	3.1360847	59.9024	59.5646	7.048165	31.37720
175	6.14091	3.1372094	61.4456	61.0990	7.059325	31.47554
176	6.07469	3.1367908	63.0225	62.6667	7.067861	31.53160
177	6.02279	3.1352181	64.6023	64.2373	7.075211	31.56162
178	5.98905	3.1353424	66.2095	65.8353	7.079415	31.59369
179	5.94435	3.1377750	67.7772	67.3938	7.083806	31.66184
180	5.88780	3.1440067	69.3663	68.9736	7.087712	31.78376
181	5.84300	3.1457746	70.9522	70.5503	7.092456	31.84495
182	5.81764	3.1469865	72.5351	72.1240	7.095048	31.88169
183	5.81193	3.1495829	74.1240	73.7036	7.094448	31.91544
184	5.81249	3.1496452	75.7649	75.3348	7.094382	31.91482
185	5.80340	3.1501403	77.4270	76.9872	7.095303	31.92817
186	5.79744	3.1504067	79.0799	78.6304	7.095950	31.93599
187	5.78094	3.1506237	80.7176	80.2585	7.097947	31.95325
188	5.76262	3.1527762	82.3554	81.8866	7.099162	31.99398
189	5.74996	3.1548858	83.9963	83.5178	7.099687	32.02890
190	5.74477	3.1552575	85.6370	85.1489	7.100182	32.03722
191	5.74139	3.1562540	87.2657	86.7680	7.100123	32.05084
192	5.72531	3.1571146	88.8852	88.3779	7.101729	32.07502
193	5.71412	3.1584641	90.4470	89.9304	7.102464	32.10009
194	5.70757	3.1586441	91.9175	91.3922	7.103226	32.10763
195	5.70183	3.1591644	93.3453	92.8115	7.103707	32.11827
196	5.69730	3.1599695	94.7640	94.2218	7.103887	32.13096
197	5.69095	3.1607251	96.1767	95.6260	7.104320	32.14483
198	5.68562	3.1612456	97.6014	97.0423	7.104750	32.15509
199	5.68365	3.1620322	98.9897	98.4223	7.104616	32.16515
200	5.68224	3.1624598	100.3507	99.7751	7.104599	32.17065
201	5.68139	3.1629618	101.7511	101.1672	7.104475	32.17644
202	5.67882	3.1639715	103.1394	102.5472	7.104300	32.18959
203	5.67540	3.1647275	104.5247	103.9242	7.104365	32.20070
204	5.67474	3.1651428	105.9556	105.3465	7.104261	32.20531
205	5.67499	3.1662519	107.4171	106.7992	7.103681	32.21686
206	5.67368	3.1676028	108.8389	108.2124	7.103169	32.23264
207	5.67177	3.1685945	110.2181	109.5833	7.102920	32.24497
208	5.67082	3.1691090	111.0617	110.4218	7.102789	32.25128
209	5.67288	3.1692701	111.0959	110.4558	7.102446	32.25110
210	5.67479	3.1693135	111.0296	110.3899	7.102182	32.24979
211	5.67937	3.1693443	110.5617	109.9248	7.101580	32.24598
212	5.67801	3.1689165	109.9356	109.3025	7.101961	32.24277
213	5.67957	3.1685570	109.3002	108.6710	7.101939	32.23754
214	5.68013	3.1680859	108.6436	108.0183	7.102102	32.23202
215	5.67973	3.1675777	107.9991	107.3777	7.102404	32.22699
216	5.68164	3.1670571	107.3212	106.7038	7.102422	32.21963
217	5.68139	3.1664622	106.6128	105.9998	7.102749	32.21351
218	5.68194	3.1658860	105.8313	105.2229	7.102964	32.20687
219	5.68023	3.1653097	105.0136	104.4101	7.103463	32.20241
220	5.68038	3.1649441	104.1560	103.5576	7.103617	32.19856
221	5.67947	3.1644855	103.2986	102.7054	7.103951	32.19468
222	5.68234	3.1636926	102.4288	101.8408	7.103987	32.18343
223	5.68194	3.1633704	101.5592	100.9764	7.104187	32.18061
224	5.68390	3.1627633	100.6835	100.1060	7.104239	32.17232
225	5.68471	3.1624782	99.7955	99.2233	7.104267	32.16877
226	5.68486	3.1621684	98.8376	98.2711	7.104389	32.16560
227	5.68491	3.1616480	97.8097	97.2493	7.104632	32.16019
228	5.68622	3.1610287	96.7604	96.2063	7.104769	32.15248
229	5.68768	3.1606384	95.7356	95.1876	7.104767	32.14719
230	5.68944	3.1602605	94.7167	94.1748	7.104721	32.14175
231	5.69413	3.1594988	93.6554	93.1197	7.104507	32.12922
232	5.69816	3.1588548	92.5756	92.0464	7.104314	32.11866
233	5.70103	3.1583656	91.4960	90.9732	7.104185	32.11094
234	5.70521	3.1582043	90.4223	89.9059	7.103720	32.10566
235	5.70853	3.1577151	89.3456	88.8356	7.103534	32.09751
236	5.71367	3.1567557	88.2597	87.7561	7.103366	32.08235
237	5.71856	3.1562728	87.1680	86.6708	7.102980	32.07280
238	5.72526	3.1555919	86.0792	85.5884	7.102469	32.05930
239	5.73539	3.1548739	84.9689	84.4847	7.101547	32.04213
240	5.73912	3.1545890	83.8831	83.4053	7.101202	32.03591
241	5.74174	3.1538711	82.8034	82.3320	7.101224	32.02588
242	5.74542	3.1527700	81.7144	81.2494	7.101313	32.01053
243	5.75259	3.1509331	80.6226	80.1640	7.101348	31.98363
244	5.76106	3.1497828	79.5337	79.0815	7.100859	31.96320
245	5.77433	3.1495042	78.3991	77.9536	7.099311	31.94806
246	5.78921	3.1493244	77.2920	76.8530	7.097508	31.93249
247	5.79537	3.1490768	76.1878	75.7553	7.096839	31.92442
248	5.79815	3.1485943	75.0959	74.6697	7.096717	31.91691
249	5.80173	3.1486001	74.0039	73.5842	7.096239	31.91411
250	5.81027	3.1486615	72.9150	72.5016	7.095110	31.90726
251	5.80996	3.1467268	71.8139	71.4069	7.096132	31.88637
252	5.80850	3.1453485	70.7158	70.3153	7.097010	31.87283
253	5.81390	3.1446068	69.6177	69.2236	7.096692	31.85994
254	5.83259	3.1427778	68.5197	68.1319	7.095270	31.82234
255	5.86575	3.1387325	67.4095	67.0282	7.093180	31.74638
256	5.89838	3.1348928	66.3082	65.9333	7.091045	31.67336
257	5.93407	3.1338432	65.2071	64.8387	7.087076	31.62876
258	5.96376	3.1334354	64.0969	63.7349	7.083531	31.59702
259	5.99651	3.1340579	62.9683	62.6128	7.079071	31.57395
260	6.02421	3.1346434	61.8337	61.4848	7.075268	31.55521
261	6.04929	3.1354450	60.7142	60.3718	7.071685	31.54133
262	6.09202	3.1349629	59.5917	59.2557	7.066554	31.49679
263	6.15109	3.1337033	58.4723	58.1428	7.059782	31.42859
264	6.22374	3.1332826	57.3406	57.0176	7.050888	31.35735
265	6.27135	3.1326032	56.2180	55.9016	7.045265	31.30651
266	6.32755	3.1321211	55.0956	54.7856	7.038475	31.25009
267	6.38167	3.1320771	53.9274	53.6241	7.031729	31.20056
268	6.40292	3.1321382	52.7927	52.4960	7.029029	31.18233
269	6.41772	3.1321007	51.6672	51.3769	7.027182	31.16891
270	6.44375	3.1320507	50.5415	50.2577	7.023945	31.14511
271	6.47186	3.1321365	49.4037	49.1264	7.020384	31.12095
272	6.50485	3.1322222	48.2598	47.9891	7.016218	31.09237
273	6.53130	3.1323819	47.0917	46.8276	7.012830	31.07061
274	6.55576	3.1332327	45.9386	45.6811	7.009345	31.05825
275	6.62079	3.1351505	44.7977	44.5468	7.000307	31.02079
276	6.69824	3.1365256	43.6507	43.4063	6.990023	30.96628
277	6.75806	3.1378393	42.4886	42.2509	6.981964	30.92716
278	6.80551	3.1386410	41.3324	41.1012	6.975697	30.89369
279	6.86978	3.1390166	40.1794	39.9548	6.967578	30.84055
280	6.92099	3.1397381	39.0174	38.7994	6.960907	30.80301
281	6.95502	3.1409600	37.8338	37.6225	6.956107	30.78635
282	7.03107	3.1432007	36.6472	36.4426	6.945667	30.74322
283	7.18282	3.1470417	35.4729	35.2750	6.925242	30.65023
284	7.28388	3.1490304	34.2833	34.0921	6.911957	30.58268
285	7.37869	3.1519780	33.0997	32.9152	6.899010	30.53119
286	7.46651	3.1539061	31.9102	31.7324	6.887432	30.47512
287	7.53826	3.1565464	30.7174	30.5464	6.877486	30.44092
288	7.67189	3.1607032	29.5644	29.3999	6.859405	30.36892
289	7.78969	3.1632708	28.4387	28.2805	6.844041	30.29416
290	8.09561	3.1779424	27.3038	27.1520	6.800739	30.18504
291	8.51503	3.1827710	26.1811	26.0356	6.749032	29.87807
292	8.70223	3.1845688	25.0401	24.9010	6.726285	29.73940
293	8.80252	3.1867155	23.9082	23.7755	6.713610	29.67799
294	8.85814	3.1884347	22.7673	22.6410	6.706353	29.64968
295	8.92491	3.1919309	21.6476	21.5276	6.697033	29.63038
296	9.13418	3.1971055	20.5279	20.4141	6.670532	29.51008
297	9.34287	3.2029739	19.4051	19.2976	6.643965	29.39829
298	9.60390	3.2114298	18.2672	18.1661	6.610507	29.27086
299	9.72902	3.2125741	17.1171	17.0223	6.595786	29.18123
300	9.75991	3.2116268	15.9943	15.9058	6.592662	29.14715
301	9.77066	3.2121557	14.8623	14.7802	6.591202	29.14422
302	9.91381	3.2217506	13.7670	13.6910	6.570976	29.12523
303	10.07917	3.2250727	13.0096	12.9377	6.550976	29.02579
304	10.13301	3.2284160	12.5107	12.4416	6.543548	29.01615
305	10.18455	3.2294575	12.0454	11.9789	6.537339	28.98546
306	10.19717	3.2289018	11.5588	11.4950	6.536148	28.97006
307	10.19807	3.2271669	10.9503	10.8898	6.536752	28.95236
308	10.17819	3.2189601	10.1868	10.1306	6.542346	28.88702
309	10.24169	3.2187909	9.4231	9.3712	6.535287	28.83515
310	10.33203	3.2194567	8.6442	8.5965	6.524898	28.77046
311	10.36042	3.2196057	7.8562	7.8129	6.521654	28.74979
312	10.37468	3.2180408	7.0529	7.0140	6.520688	28.72339
313	10.38696	3.2158905	6.2466	6.2122	6.520180	28.69279
314	10.46732	3.2190678	5.4464	5.4164	6.509915	28.66116
315	10.55501	3.2189981	4.6431	4.6175	6.500174	28.59197
316	10.57651	3.2096966	3.8489	3.8277	6.501526	28.48411
317	10.52528	3.2013143	3.0243	3.0077	6.510610	28.44204
318	10.55074	3.2044804	2.1692	2.1573	6.506476	28.45363
319	10.59529	3.2065582	1.3173	1.3101	6.500663	28.43965
320	10.59996	3.2070309	0.4957	0.4930	6.499940	28.44096
321	10.59876	3.0947409	0.1916	0.1905	6.545387	27.34325
322	10.56598	3.2033534	0.1980	0.1969	6.505202	28.43144
323	10.52966	1.0726423	0.1984	0.1973	7.379149	8.63337
324	10.49615	0.3797638	0.1956	0.1945	7.660464	2.84276
325	10.47412	0.3273676	0.1929	0.1918	7.684459	2.42960
326	10.44021	0.2745847	0.1932	0.1921	7.710575	2.01851
327	10.42774	0.2765893	0.1935	0.1924	7.712023	2.03480
328	10.46391	0.2463906	0.1937	0.1926	7.717036	1.79884
329	10.55114	0.1804346	0.1910	0.1899	7.726092	1.29202
330	10.57987	0.1898362	0.1911	0.1901	7.717508	1.36193
