Scan Count	Temperature [ITS-90, deg C]	Conductivity [S/m]	Pressure, Strain Gauge [db]	Depth [salt water, m]	Oxygen Saturation, Weiss [ml/l]	Salinity, Practical [PSU]
1	14.55570	0.0037583	0.0870	0.0865	7.114654	0.02565
2	14.55925	0.0043203	0.0900	0.0895	7.113967	0.02873
3	14.55062	0.0045056	0.0900	0.0895	7.115262	0.02976
4	14.55747	0.0040578	0.0869	0.0864	7.114306	0.02729
5	14.55709	0.0034989	0.0900	0.0895	7.114499	0.02423
6	14.56401	0.0032242	0.0899	0.0894	7.113490	0.02274
7	14.57207	0.0029618	0.0899	0.0894	7.112300	0.02133
8	14.57099	0.0026748	0.0869	0.0864	7.112535	0.01980
9	14.51119	0.0025298	0.0899	0.0894	7.121862	0.01903
10	14.44207	0.0024496	0.0869	0.0864	7.132651	0.01860
11	14.41507	0.0023570	0.0899	0.0894	7.136886	0.01811
12	14.38242	0.1657818	0.1112	0.1106	7.095963	1.06913
13	11.74056	2.6877540	0.6104	0.6070	6.572770	22.69549
14	10.27425	2.7544061	0.9756	0.9703	6.722631	24.26228
15	10.13812	2.7759923	0.9513	0.9461	6.730281	24.56345
16	10.11417	2.7961021	0.9848	0.9794	6.724830	24.77573
17	10.16473	2.7991883	0.9636	0.9583	6.717407	24.77131
18	10.14802	2.7925199	0.9879	0.9825	6.722206	24.71772
19	10.33729	2.8000502	0.9605	0.9552	6.696168	24.66241
20	10.23758	2.7969405	0.9697	0.9644	6.709509	24.69985
21	10.21074	2.8067739	0.9727	0.9673	6.708688	24.81378
22	10.17413	2.7994721	0.9879	0.9825	6.716149	24.76766
23	10.17954	2.8030926	0.9636	0.9583	6.713992	24.79924
24	10.13711	2.8076034	0.9879	0.9825	6.717261	24.87222
25	10.18286	2.8007970	0.9606	0.9553	6.714541	24.77462
26	10.16530	2.8131768	0.9850	0.9796	6.711533	24.90725
27	10.32208	2.8030736	0.9576	0.9523	6.696760	24.70204
28	10.22810	2.8173666	0.9880	0.9826	6.702206	24.90500
29	10.26730	2.8147640	0.9820	0.9766	6.698551	24.85287
30	10.27848	2.8245014	0.9637	0.9584	6.693186	24.93990
31	10.24880	2.8206159	0.9790	0.9736	6.698366	24.92245
32	10.23250	2.8322616	0.9637	0.9584	6.695516	25.04702
33	10.27780	2.8312217	0.9699	0.9646	6.690496	25.00572
34	10.30722	2.8375316	0.9730	0.9677	6.684361	25.04684
35	10.41018	2.8356644	0.9578	0.9525	6.672786	24.95806
36	10.47412	2.8368049	0.9761	0.9707	6.664670	24.92537
37	10.52159	2.8394379	0.9458	0.9406	6.657929	24.91844
38	10.62251	2.8300427	0.9702	0.9648	6.649710	24.75920
39	10.51909	2.8338867	0.9672	0.9619	6.660488	24.86649
40	10.55029	2.8213545	0.9733	0.9680	6.661859	24.72430
41	10.45410	2.8309350	0.9582	0.9530	6.669462	24.88223
42	10.51375	2.8270395	0.9644	0.9591	6.663915	24.80396
43	10.51818	2.8341244	0.9614	0.9561	6.660499	24.86941
44	10.56297	2.8359482	0.9675	0.9622	6.654412	24.85654
45	10.67021	2.8321150	0.9464	0.9412	6.643190	24.74689
46	10.61903	2.8315690	0.9830	0.9776	6.649506	24.77625
47	10.68961	2.8329999	0.9465	0.9413	6.640525	24.74230
48	10.60462	2.8269199	0.9862	0.9808	6.653108	24.74120
49	10.56712	2.8334882	0.9529	0.9476	6.654916	24.82998
50	10.59210	2.8263087	0.9743	0.9689	6.654851	24.74379
51	10.53199	2.8337856	0.9774	0.9721	6.658989	24.85673
52	10.63065	2.8332500	0.9654	0.9601	6.647441	24.78458
53	10.60952	2.8336185	0.9838	0.9784	6.649809	24.80245
54	10.68927	2.8340396	0.9626	0.9573	6.640146	24.75252
55	10.76444	2.8339082	0.9628	0.9575	6.631270	24.70054
56	10.75946	2.8316865	0.9689	0.9636	6.632754	24.68256
57	10.70919	2.8334334	0.9570	0.9517	6.638023	24.73324
58	10.65510	2.8299474	0.9754	0.9700	6.645865	24.73623
59	10.58658	2.8337257	0.9664	0.9611	6.652500	24.81905
60	10.54586	2.8343499	0.9574	0.9522	6.657104	24.85275
61	10.53153	2.8352176	0.9667	0.9614	6.658460	24.87088
62	10.53642	2.8358237	0.9699	0.9645	6.657630	24.87340
63	10.61425	2.8351752	0.9761	0.9708	6.648615	24.81425
64	10.71621	2.8348950	0.9490	0.9438	6.636599	24.74255
65	10.73592	2.8309562	0.9765	0.9711	6.635845	24.69140
66	10.66166	2.8343607	0.9492	0.9440	6.643300	24.77429
67	10.70576	2.8306655	0.9586	0.9533	6.639546	24.70894
68	10.64268	2.8326796	0.9861	0.9807	6.646240	24.77094
69	10.72655	2.8289254	0.9559	0.9506	6.637776	24.67822
70	10.52227	2.8288738	0.9956	0.9902	6.662149	24.81588
71	10.54750	2.8287489	0.9349	0.9298	6.659184	24.79756
72	10.34339	2.8225547	0.9868	0.9814	6.686178	24.87656
73	10.20798	2.8249353	0.9536	0.9484	6.701501	24.99253
74	10.10097	2.8179013	0.9842	0.9788	6.717355	24.99758
75	10.04661	2.8243077	0.9540	0.9487	6.721266	25.09777
76	10.00680	2.8173389	0.9633	0.9580	6.729008	25.05711
77	9.98455	2.8244745	0.9757	0.9703	6.728720	25.14244
78	10.19548	2.8260037	0.9363	0.9311	6.702567	25.01156
79	10.05537	2.8283913	0.9974	0.9919	6.718502	25.13165
80	10.23008	2.8312222	0.9276	0.9225	6.696237	25.03858
81	10.12367	2.8349480	1.0038	0.9983	6.707517	25.14841
82	10.08602	2.8326609	0.9462	0.9410	6.713014	25.15218
83	10.08540	2.8412912	0.9708	0.9654	6.709493	25.23702
84	9.94491	2.8364829	0.9741	0.9687	6.728490	25.28787
85	9.96758	2.8438559	0.9529	0.9477	6.722652	25.34441
86	9.90028	2.8435889	1.0019	0.9963	6.730911	25.38896
87	9.92489	2.8413344	0.9625	0.9572	6.728878	25.34955
88	9.98349	2.8471225	0.9901	0.9847	6.719361	25.36532
89	9.96674	2.8447603	0.9690	0.9637	6.722374	25.35387
90	9.96949	2.8480690	0.9601	0.9548	6.720656	25.38443
91	9.90079	2.8461949	1.0028	0.9973	6.729754	25.41424
92	9.93009	2.8489444	0.9605	0.9552	6.725051	25.42069
93	9.90341	2.8521540	1.0033	0.9978	6.726929	25.47101
94	9.91146	2.8497781	0.9730	0.9677	6.726954	25.44198
95	9.92455	2.8520168	0.9886	0.9831	6.724431	25.45478
96	9.92477	2.8495458	0.9675	0.9621	6.725442	25.43034
97	9.95482	2.8533983	0.9891	0.9836	6.720193	25.44707
98	9.94357	2.8511949	0.9801	0.9747	6.722477	25.43333
99	9.96702	2.8538509	0.9864	0.9810	6.718530	25.44293
100	9.93356	2.8528327	0.9988	0.9933	6.723000	25.45646
101	10.02250	2.8540708	0.9472	0.9420	6.711746	25.40615
102	9.91806	2.8523862	1.0053	0.9998	6.725060	25.46298
103	9.99402	2.8533622	0.9568	0.9516	6.715476	25.41918
104	9.98719	2.8549052	1.0057	1.0002	6.715655	25.43911
105	10.03814	2.8522361	0.9543	0.9491	6.710626	25.37720
106	10.08844	2.8551962	0.9880	0.9826	6.703336	25.37097
107	10.06906	2.8534449	0.9851	0.9797	6.706397	25.36738
108	10.08731	2.8528313	0.9642	0.9589	6.704456	25.34862
109	10.07911	2.8552677	1.0039	0.9984	6.704428	25.37819
110	10.08731	2.8537366	0.9586	0.9533	6.704078	25.35748
111	10.05615	2.8565967	1.0014	0.9959	6.706637	25.40729
112	9.98377	2.8550899	0.9620	0.9567	6.715990	25.44334
113	9.97817	2.8599649	0.9928	0.9873	6.714624	25.49514
114	9.89235	2.8566220	0.9900	0.9845	6.726387	25.52279
115	9.90671	2.8597450	0.9780	0.9726	6.723338	25.54338
116	9.89335	2.8598107	0.9904	0.9849	6.724924	25.55347
117	9.89542	2.8611640	0.9785	0.9731	6.724104	25.56533
118	9.85504	2.8611167	1.0061	1.0006	6.729005	25.59344
119	9.88000	2.8604487	0.9607	0.9554	6.726268	25.56920
120	9.86693	2.8618739	1.0188	1.0132	6.727248	25.59247
121	9.90051	2.8588032	0.9460	0.9408	6.724483	25.53851
122	9.90386	2.8599835	1.0192	1.0136	6.723582	25.54773
123	9.89173	2.8589106	0.9647	0.9594	6.725498	25.54576
124	9.90157	2.8601862	0.9954	0.9899	6.723773	25.55135
125	9.85264	2.8593223	0.9926	0.9872	6.730052	25.57746
126	9.88765	2.8602042	0.9654	0.9601	6.725446	25.56138
127	9.87710	2.8607349	1.0113	1.0057	6.726500	25.57406
128	9.90330	2.8601206	0.9660	0.9606	6.723591	25.54949
129	9.88000	2.8607290	1.0180	1.0124	6.726151	25.57194
130	9.86576	2.8605144	0.9725	0.9672	6.727962	25.57993
131	9.86263	2.8613134	0.9880	0.9825	6.728004	25.59001
132	9.83812	2.8610692	1.0065	1.0010	6.731070	25.60496
133	9.81943	2.8577907	0.9762	0.9709	6.734716	25.58589
134	9.74399	2.8578093	1.0069	1.0013	6.743854	25.63961
135	9.73486	2.8588882	0.9919	0.9864	6.744503	25.65678
136	9.73675	2.8591862	0.9861	0.9807	6.744147	25.65838
137	9.73542	2.8594009	1.0077	1.0022	6.744218	25.66145
138	9.73747	2.8595797	0.9927	0.9872	6.743893	25.66175
139	9.73970	2.8599373	0.9929	0.9875	6.743471	25.66371
140	9.73703	2.8600685	1.0114	1.0058	6.743739	25.66690
141	9.73380	2.8597645	0.9721	0.9668	6.744259	25.66620
142	9.73013	2.8558191	1.0210	1.0154	6.746380	25.62979
143	9.71227	2.8537462	1.4809	1.4728	6.749437	25.62182
144	9.70276	2.8566123	2.4308	2.4174	6.749389	25.65660
145	9.72017	2.8603973	3.6272	3.6072	6.745686	25.68122
146	9.74510	2.8692738	4.9575	4.9302	6.738917	25.75076
147	9.63509	2.8912652	6.3671	6.3320	6.742899	26.04725
148	9.36414	2.8964535	7.7704	7.7276	6.773551	26.29590
149	9.38725	2.9047478	9.1678	9.1172	6.767181	26.36141
150	8.68797	2.9514771	10.5285	10.4704	6.831887	27.36056
151	8.32500	2.9542380	11.7766	11.7116	6.875279	27.67116
152	8.26299	2.9600578	13.0096	12.9377	6.880294	27.77971
153	8.23437	2.9657366	14.2669	14.1881	6.881245	27.86068
154	8.20899	2.9710324	15.5820	15.4958	6.881969	27.93522
155	8.21258	2.9850859	16.9155	16.8219	6.875095	28.07769
156	8.26229	2.9928553	18.2641	18.1629	6.865448	28.11805
157	8.26347	3.0000379	19.6005	19.4919	6.862038	28.19107
158	8.18277	3.0062803	20.9157	20.7998	6.869087	28.32023
159	8.11574	3.0293761	22.2125	22.0892	6.866680	28.61462
160	8.35632	3.0601565	23.5124	23.3819	6.823372	28.73814
161	8.50073	3.0688242	24.8367	24.6988	6.802070	28.70977
162	8.47028	3.0948621	26.1488	26.0035	6.793983	29.00355
163	8.22061	3.0721031	27.4518	27.2992	6.834384	28.97200
164	7.84461	3.0942428	28.7669	28.6069	6.869711	29.51730
165	7.80850	3.1272331	30.0607	29.8934	6.858677	29.89580
166	7.56169	3.1229710	31.3759	31.2011	6.890590	30.06239
167	7.36500	3.1254569	32.7001	32.5179	6.913369	30.25926
168	7.23081	3.1291885	34.0122	33.8225	6.927983	30.41632
169	7.14901	3.1300222	35.3183	35.1212	6.937611	30.49681
170	7.06379	3.1324659	36.6394	36.4349	6.946891	30.59803
171	6.89294	3.1305189	37.9729	37.7608	6.968863	30.72849
172	6.81368	3.1293793	39.2850	39.0654	6.979221	30.78645
173	6.77263	3.1290964	40.5941	40.3671	6.984455	30.81961
174	6.72703	3.1285608	41.9397	41.7050	6.990383	30.85415
175	6.67514	3.1269095	43.2427	43.0006	6.997652	30.88226
176	6.51440	3.1205767	44.5609	44.3113	7.020799	30.95755
177	6.37501	3.1187985	45.8577	45.6007	7.039101	31.06405
178	6.34503	3.1179309	47.1851	46.9205	7.043314	31.08120
179	6.32008	3.1171680	48.5429	48.2706	7.046850	31.09492
180	6.30838	3.1166698	49.8793	49.5993	7.048596	31.09949
181	6.29974	3.1168856	50.5979	50.3138	7.049582	31.10943
182	6.30628	3.1173535	50.5984	50.3142	7.048526	31.10862
183	6.31272	3.1176304	50.1727	49.8910	7.047571	31.10599
184	6.31369	3.1172238	49.5674	49.2892	7.047643	31.10090
185	6.30909	3.1168850	48.9743	48.6995	7.048378	31.10163
186	6.30843	3.1168294	48.3050	48.0340	7.048475	31.10194
187	6.31390	3.1171000	47.4623	47.1962	7.047635	31.10032
188	6.31937	3.1170566	46.5739	46.3128	7.046954	31.09526
189	6.32775	3.1173580	45.7039	45.4477	7.045734	31.09134
190	6.34156	3.1177886	44.8368	44.5856	7.043771	31.08390
191	6.35705	3.1183547	43.9759	43.7296	7.041529	31.07640
192	6.40758	3.1209285	43.1057	42.8644	7.033901	31.05912
193	6.55427	3.1247100	42.3817	42.1446	7.013723	30.96778
194	6.62588	3.1257753	41.8099	41.5760	7.004290	30.91495
195	6.67210	3.1269582	41.1924	40.9620	6.997962	30.88647
196	6.71263	3.1272597	40.5567	40.3299	6.992781	30.85354
197	6.73730	3.1275243	39.8843	39.6614	6.989585	30.83454
198	6.76416	3.1274745	39.1178	38.8992	6.986274	30.81022
199	6.78767	3.1276158	38.2781	38.0643	6.983282	30.79103
200	6.81285	3.1286388	37.4689	37.2597	6.979651	30.77996
201	6.84622	3.1298838	36.6110	36.4066	6.974903	30.76399
202	6.88465	3.1303395	35.7744	35.5747	6.969927	30.73494
203	6.98726	3.1287164	34.9438	34.7489	6.958082	30.62622
204	7.08352	3.1277102	34.0889	33.8989	6.946736	30.53032
205	7.12071	3.1274938	33.2675	33.0821	6.942264	30.49547
206	7.15705	3.1259644	32.4462	32.2654	6.938537	30.44728
207	7.21717	3.1235291	31.5913	31.4153	6.932335	30.36853
208	7.30000	3.1197146	30.7212	30.5502	6.924025	30.25537
209	7.38702	3.1211240	29.8085	29.6426	6.912701	30.19494
210	7.55569	3.1238269	28.9232	28.7623	6.890865	30.07777
211	7.76565	3.1141307	28.0226	27.8668	6.869958	29.79476
212	7.77158	3.0740672	27.1343	26.9835	6.888022	29.36670
213	7.80940	3.0687274	26.2398	26.0940	6.885890	29.27896
214	8.07523	3.0916672	25.3361	25.1954	6.842915	29.29792
215	8.32592	3.0862095	24.4479	24.3121	6.815190	29.03328
216	8.44308	3.0685856	23.5593	23.4286	6.809087	28.75475
217	8.48839	3.0630231	22.6771	22.5513	6.806136	28.66071
218	8.45433	3.0542262	21.8070	21.6861	6.814202	28.59772
219	8.37179	3.0387652	20.9308	20.8148	6.831185	28.50484
220	8.18951	3.0124958	20.0637	19.9525	6.865389	28.37979
221	8.15507	3.0042275	19.1997	19.0933	6.873399	28.32190
222	8.20905	2.9997468	18.3449	18.2433	6.868821	28.23222
223	8.24562	2.9931826	17.4930	17.3962	6.867329	28.13508
224	8.25854	2.9899025	16.6320	16.5399	6.867232	28.09108
225	8.25468	2.9862059	15.8044	15.7170	6.869385	28.05616
226	8.23154	2.9811366	14.9769	14.8940	6.874541	28.02236
227	8.21494	2.9736749	14.1645	14.0862	6.879997	27.95848
228	8.20327	2.9690427	13.3431	13.2694	6.883551	27.92002
229	8.20353	2.9658089	12.5247	12.4555	6.884990	27.88658
230	8.21750	2.9619965	11.7216	11.6568	6.885001	27.83628
231	8.23207	2.9568940	10.9092	10.8490	6.885529	27.77219
232	8.24793	2.9534478	10.0907	10.0351	6.885135	27.72430
233	8.27956	2.9474283	9.2967	9.2454	6.883967	27.63743
234	8.49885	2.9288853	8.5026	8.4558	6.865284	27.27583
235	8.80045	2.9053945	7.7054	7.6630	6.838621	26.80572
236	9.22460	2.8841017	6.9023	6.8643	6.795924	26.27487
237	9.45338	2.8742324	6.1021	6.0685	6.772250	26.00944
238	9.58178	2.8559528	5.2927	5.2636	6.764436	25.73539
239	9.54244	2.8421061	4.4713	4.4467	6.775157	25.62628
240	9.52079	2.8405301	3.6437	3.6236	6.778470	25.62635
241	9.59015	2.8209664	2.8130	2.7975	6.778343	25.38330
242	9.75056	2.7918679	1.9489	1.9381	6.771045	24.98395
243	9.85280	2.7649592	1.0512	1.0454	6.769854	24.64943
244	9.90034	2.6291857	0.2783	0.2768	6.821240	23.29131
245	9.89861	0.4744418	0.1419	0.1411	7.727907	3.66235
246	9.83433	1.6957996	0.1452	0.1444	7.226425	14.45109
247	9.75896	0.4665996	0.1425	0.1418	7.755807	3.61173
248	9.72723	0.3189183	0.1459	0.1451	7.821087	2.41198
249	9.70087	0.2458606	0.1462	0.1454	7.854870	1.83260
250	9.65896	0.2165804	0.1435	0.1427	7.874070	1.60477
251	9.62515	0.2046446	0.1469	0.1461	7.884980	1.51304
252	9.59237	0.1958683	0.1442	0.1434	7.894476	1.44603
253	9.56011	0.1977857	0.1476	0.1468	7.899699	1.46225
254	9.53812	0.1612590	0.1480	0.1472	7.918040	1.18018
255	9.51421	0.1499691	0.1513	0.1504	7.926878	1.09424
256	9.49097	0.1800549	0.1485	0.1477	7.919492	1.32704
257	9.46941	0.1578754	0.1489	0.1481	7.932177	1.15635
