Scan Count	Temperature [ITS-90, deg C]	Conductivity [S/m]	Depth [salt water, m]	Oxygen Saturation, Weiss [ml/l]	Salinity, Practical [PSU]
1	21.54616	0.0085593	-0.0189	6.158232	0.04735
2	21.54553	0.0085562	-0.0219	6.158308	0.04734
3	21.54452	0.0085717	-0.0128	6.158427	0.04742
4	21.54382	0.0085717	-0.0159	6.158511	0.04742
5	21.54288	0.0085717	-0.0189	6.158624	0.04742
6	21.54186	0.0085810	-0.0159	6.158744	0.04746
7	21.54101	0.0085717	-0.0128	6.158849	0.04742
8	21.53960	0.0085717	-0.0159	6.159018	0.04742
9	21.53898	0.0085717	-0.0129	6.159093	0.04742
10	21.53804	0.0085810	-0.0159	6.159204	0.04746
11	21.53734	0.0085717	-0.0159	6.159290	0.04742
12	21.53632	0.0085872	-0.0189	6.159409	0.04749
13	21.53570	0.0085717	-0.0189	6.159487	0.04742
14	21.53437	0.0085717	-0.0159	6.159646	0.04742
15	21.53383	0.0085717	-0.0129	6.159712	0.04742
16	21.53297	0.0085655	-0.0129	6.159816	0.04739
17	21.53234	0.0085624	-0.0129	6.159891	0.04738
18	21.53148	0.0085500	-0.0159	6.159997	0.04732
19	21.53039	0.0085438	-0.0129	6.160129	0.04729
20	21.53000	0.0085407	-0.0129	6.160177	0.04728
21	21.52922	0.0085438	-0.0159	6.160270	0.04729
22	21.52860	0.0086058	-0.0159	6.160334	0.04759
23	21.52782	0.0085965	-0.0099	6.160429	0.04754
24	21.52712	0.0085810	-0.0189	6.160517	0.04747
25	21.52579	0.0085810	-0.0220	6.160676	0.04747
26	21.52462	0.0085872	-0.0159	6.160816	0.04750
27	21.52353	0.0085810	-0.0129	6.160948	0.04747
28	21.52236	0.0085810	-0.0129	6.161089	0.04747
29	21.52142	0.0085810	-0.0129	6.161201	0.04747
30	21.52064	0.0085810	-0.0099	6.161295	0.04748
31	21.51963	0.0085810	-0.0129	6.161417	0.04748
32	21.51885	0.0085872	-0.0159	6.161510	0.04751
33	21.51768	0.0085872	-0.0159	6.161650	0.04751
34	21.51682	0.0085872	-0.0159	6.161753	0.04751
35	21.51557	0.0085965	-0.0159	6.161902	0.04755
36	21.51432	0.0086058	-0.0129	6.162050	0.04760
37	21.51354	0.0086151	-0.0220	6.162143	0.04764
38	21.51253	0.0086243	-0.0129	6.162263	0.04769
39	21.51144	0.0086274	-0.0159	6.162394	0.04770
40	21.51011	0.0086429	-0.0159	6.162550	0.04778
41	21.50902	0.0089805	-0.0129	6.162623	0.04940
42	21.50832	0.0097301	-0.0159	6.162577	0.05303
43	21.50723	0.0103808	-0.0129	6.162595	0.05619
44	21.50629	0.0110750	-0.0159	6.162586	0.05958
45	21.50582	0.0118688	-0.0159	6.162502	0.06346
46	21.50497	0.0128676	-0.0129	6.162428	0.06838
47	21.50387	0.0139848	-0.0099	6.162361	0.07390
48	21.50286	0.0153884	-0.0189	6.162231	0.08088
49	21.50153	0.0171908	-0.0159	6.162066	0.08990
50	21.50044	0.0198475	-0.0189	6.161716	0.10329
51	21.49927	0.0220743	-0.0190	6.161449	0.11459
52	21.49834	0.0238698	-0.0159	6.161232	0.12375
53	21.49717	0.0283590	-0.0159	6.160543	0.14682
54	21.49600	0.0282840	-0.0189	6.160697	0.14643
55	21.49545	0.0274248	-0.0099	6.160922	0.14201
56	21.49444	0.0267752	-0.0129	6.161164	0.13866
57	21.49397	0.0263567	-0.0189	6.161298	0.13651
58	21.49304	0.0260383	-0.0159	6.161469	0.13488
59	21.49148	0.0257418	-0.0098	6.161712	0.13336
60	21.49086	0.0253797	-0.0189	6.161853	0.13151
61	21.48992	0.0250958	-0.0190	6.162018	0.13005
62	21.48883	0.0247993	-0.0159	6.162204	0.12854
63	21.48828	0.0248025	-0.0190	6.162269	0.12855
64	21.48719	0.0245248	-0.0129	6.162451	0.12713
65	21.48641	0.0242285	-0.0129	6.162600	0.12562
66	21.48532	0.0239447	-0.0189	6.162783	0.12417
67	21.48439	0.0236733	-0.0190	6.162945	0.12278
68	21.48361	0.0234145	-0.0190	6.163087	0.12146
69	21.48283	0.0232181	-0.0129	6.163217	0.12046
70	21.48213	0.0230280	-0.0129	6.163336	0.11949
71	21.48096	0.0228596	-0.0189	6.163507	0.11864
72	21.47995	0.0226508	-0.0159	6.163667	0.11757
73	21.47901	0.0224825	-0.0159	6.163811	0.11672
74	21.47831	0.0222581	-0.0159	6.163936	0.11558
75	21.47730	0.0220182	-0.0190	6.164102	0.11436
76	21.47668	0.0218904	-0.0189	6.164201	0.11371
77	21.47605	0.0218717	-0.0129	6.164279	0.11361
78	21.47520	0.0222301	-0.0098	6.164316	0.11544
79	21.47488	0.0238636	-0.0159	6.164054	0.12378
80	21.47333	0.0242035	-0.0159	6.164178	0.12552
81	21.47021	0.0241973	-0.0189	6.164554	0.12550
82	21.46639	0.0240663	-0.0099	6.165037	0.12484
83	21.46149	0.0239509	-0.0129	6.165649	0.12426
84	21.45308	0.0239104	-0.0099	6.166669	0.12407
85	21.44872	0.0237544	-0.0189	6.167222	0.12329
86	21.44740	0.0237794	-0.0189	6.167377	0.12342
87	21.44709	0.0238199	-0.0159	6.167407	0.12363
88	21.44701	0.0238449	-0.0159	6.167411	0.12375
89	21.44685	0.0237731	-0.0189	6.167443	0.12339
90	21.44678	0.0238916	-0.0159	6.167431	0.12399
91	21.44670	0.0236578	-0.0068	6.167483	0.12280
92	21.44577	0.0237264	-0.0129	6.167583	0.12315
93	21.44444	0.0236578	-0.0159	6.167755	0.12280
94	21.44382	0.0235892	-0.0129	6.167843	0.12245
95	21.44343	0.0235361	-0.0129	6.167899	0.12218
96	21.44351	0.0234239	-0.0159	6.167911	0.12161
97	21.44195	0.0232649	-0.0128	6.168128	0.12080
98	21.44040	0.0230654	-0.0129	6.168352	0.11978
99	21.43985	0.0229002	-0.0129	6.168448	0.11894
100	21.43946	0.0227349	-0.0189	6.168525	0.11810
101	21.43907	0.0225324	-0.0129	6.168609	0.11707
102	21.43868	0.0223049	-0.0068	6.168698	0.11591
103	21.43837	0.0221179	-0.0189	6.168770	0.11495
104	21.43736	0.0219185	-0.0189	6.168928	0.11394
105	21.43674	0.0217845	-0.0159	6.169028	0.11326
106	21.43658	0.0217160	-0.0219	6.169059	0.11291
107	21.43581	0.0217502	-0.0098	6.169146	0.11309
108	21.43549	0.0216817	-0.0159	6.169197	0.11274
109	21.43526	0.0215321	-0.0159	6.169252	0.11198
110	21.43472	0.0215695	0.0053	6.169311	0.11217
111	21.32792	0.0215976	0.0204	6.182196	0.11255
112	20.68050	0.4788570	0.0598	6.162676	2.81838
113	19.13152	2.0650784	0.1536	5.943239	14.10644
114	17.79557	2.3371398	0.1930	6.009674	16.67739
115	17.08358	2.1068982	0.2021	6.152598	15.15212
116	16.71415	2.4872737	0.1900	6.080813	18.33503
117	16.52370	1.0496350	0.1809	6.529560	7.21624
118	16.62906	0.7299768	0.1839	6.608390	4.87107
119	16.78544	0.5003986	0.1869	6.652106	3.24071
120	16.91218	1.1490196	0.1991	6.451228	7.88004
121	17.04852	1.8448737	0.1990	6.232880	13.12111
122	17.07709	1.5470064	0.1960	6.316008	10.82807
123	17.07389	0.3916412	0.1930	6.642658	2.47922
124	17.16132	1.1175661	0.1960	6.428998	7.60080
125	17.28624	0.7801648	0.2081	6.507961	5.14738
126	17.33687	1.6199940	0.2324	6.264333	11.31135
127	17.35365	1.8023966	0.2505	6.210173	12.69711
128	17.34258	1.8210695	0.2384	6.206085	12.84381
129	17.33604	1.1392815	0.2081	6.401082	7.72717
130	17.35014	1.0671255	0.1809	6.419645	7.19808
131	17.45484	0.2652457	0.1627	6.624229	1.62559
132	17.56749	0.2410853	0.1779	6.615137	1.46569
133	17.68523	1.3772398	0.2021	6.291792	9.40529
134	17.76061	0.9605712	0.2172	6.397929	6.36294
135	17.79752	0.5868191	0.1991	6.494217	3.74770
136	17.80568	0.7200398	0.1688	6.457534	4.66391
137	17.81502	0.1579008	0.1536	6.602418	0.93357
138	17.83148	0.1469931	0.1567	6.602859	0.86575
139	17.90719	0.3587706	0.1567	6.539485	2.21375
140	17.95421	1.4653950	0.1688	6.235534	9.99364
141	17.98482	0.2420389	0.1628	6.558728	1.45712
142	18.00494	0.2241035	0.1536	6.560503	1.34286
143	17.99057	0.7188911	0.1446	6.434256	4.63517
144	17.96296	0.2967729	0.1416	6.547885	1.80826
145	17.94007	0.2239576	0.1506	6.569223	1.34402
146	17.94182	0.3526004	0.1415	6.536483	2.17158
147	17.94238	0.2613874	0.1507	6.559550	1.58194
148	17.93720	0.2752386	0.1627	6.556754	1.67084
149	17.92292	1.3958607	0.1779	6.258417	9.48810
150	17.88056	1.4141291	0.1809	6.258365	9.63257
151	17.82088	1.4216072	0.1809	6.263335	9.70181
152	17.77377	1.3982853	0.1779	6.275395	9.54045
153	17.72797	1.3897904	0.1839	6.283200	9.48826
154	17.63567	1.3920943	0.1870	6.293545	9.52668
155	17.48618	1.8359713	0.1900	6.185484	12.91278
156	17.36452	1.8640231	0.1991	6.191273	13.16687
157	17.32532	1.8487557	0.1991	6.200107	13.06204
158	17.28905	1.6589799	0.1960	6.258756	11.62094
159	17.25865	1.5645856	0.1930	6.289401	10.91289
160	17.23602	1.7459515	0.1961	6.239917	12.30060
161	17.22739	1.9985441	0.1900	6.168012	14.25342
162	17.19122	1.8774416	0.1870	6.207108	13.32666
163	17.16502	1.7923053	0.1840	6.234734	12.67833
164	17.18219	1.7916049	0.1839	6.232958	12.66760
165	17.19595	1.8769007	0.1809	6.206727	13.32094
166	17.20793	1.8679976	0.1839	6.207935	13.24824
167	17.21711	1.8661775	0.1930	6.207415	13.23120
168	17.22513	1.8766945	0.1961	6.203465	13.30980
169	17.22924	1.8582559	0.1961	6.208319	13.16613
170	17.23321	1.8801100	0.1930	6.201560	13.33353
171	17.23239	1.8841926	0.2021	6.200475	13.36534
172	17.23034	1.8787188	0.2021	6.202289	13.32373
173	17.22979	1.9338288	0.2021	6.186440	13.75023
174	17.22657	1.8658073	0.2112	6.206444	13.22527
175	17.22355	1.7855191	0.2172	6.229953	12.60797
176	17.20903	2.7848475	0.2203	5.942210	20.50433
177	17.18041	1.9709038	0.2143	6.181284	14.05484
178	17.16283	1.6014685	0.2203	6.290111	11.21876
179	17.15373	2.0681589	0.2203	6.156071	14.82267
180	17.11874	3.2314404	0.2203	5.821428	24.20963
181	17.07470	3.2119187	0.2203	5.831282	24.07431
182	17.05159	2.8959225	0.2173	5.925670	21.48897
183	17.04156	3.5245844	0.2112	5.743367	26.70148
184	17.02657	3.1481159	0.2082	5.854483	23.57495
185	17.01445	3.0083369	0.2173	5.896497	22.43000
186	17.01356	2.3744649	0.2173	6.082088	17.29756
187	17.01751	3.0498945	0.2173	5.884050	22.77004
188	17.00941	3.0257488	0.2233	5.891900	22.57593
189	16.99144	3.0255237	0.2203	5.893725	22.58411
190	16.97865	3.0456580	0.2233	5.889081	22.75702
191	16.96185	3.0368925	0.2294	5.893291	22.69426
192	16.92440	3.4726033	0.2354	5.769221	26.34191
193	16.84590	3.6534330	0.2446	5.723348	27.92108
194	16.79566	3.6007674	0.2385	5.743325	27.50923
195	16.78497	3.5766903	0.2385	5.751375	27.31258
196	16.77117	3.6048183	0.2446	5.744340	27.56032
197	16.72610	3.5692590	0.2385	5.758901	27.28958
198	16.68520	3.5663662	0.2355	5.763470	27.29281
199	16.66598	3.5714724	0.2385	5.763705	27.34922
200	16.65028	3.6294872	0.2416	5.747948	27.85327
201	16.64610	3.6392892	0.2446	5.745421	27.93965
202	16.59877	3.6347861	0.2537	5.751015	27.93421
203	16.55339	3.6460859	0.2567	5.751744	28.06233
204	16.56239	3.6545890	0.2628	5.748406	28.12864
205	16.56380	3.6322709	0.2627	5.754914	27.93711
206	16.50793	3.6417430	0.2718	5.757132	28.05704
207	16.43928	3.6394224	0.2749	5.764019	28.08531
208	16.38194	3.6353572	0.2840	5.770422	28.09074
209	16.32529	3.6304969	0.2779	5.777013	28.08885
210	16.24442	3.6254371	0.2840	5.785881	28.10228
211	16.15989	3.6119150	0.2840	5.797674	28.04540
212	16.05821	3.5922575	0.2840	5.812959	27.94741
213	15.95636	3.5827214	0.2780	5.825239	27.93660
214	15.87418	3.5781556	0.2749	5.834223	27.95492
215	15.80080	3.5792411	0.2719	5.840672	28.01612
216	15.76171	3.5856092	0.2720	5.842321	28.09913
217	15.77681	3.5022818	0.2780	5.866688	27.36560
218	15.75278	3.5166228	0.2750	5.864500	27.50650
219	15.70672	3.4814601	0.2780	5.879726	27.23352
220	15.68267	3.5020124	0.2811	5.875605	27.42839
221	15.71295	3.5185909	0.2962	5.867618	27.55125
222	15.69872	3.5262011	0.3022	5.866587	27.62724
223	15.71531	3.5402501	0.3234	5.860679	27.73766
224	15.74306	3.6075274	0.3234	5.837262	28.30305
225	15.74477	3.5779882	0.3265	5.846247	28.04486
226	15.72791	3.5683817	0.3204	5.850786	27.97328
227	15.67684	3.5648732	0.3174	5.856619	27.97886
228	15.62415	3.5652305	0.3174	5.861411	28.01928
229	15.59316	3.5690710	0.3174	5.863099	28.07476
230	15.58251	3.5702910	0.3114	5.863710	28.09298
231	15.56122	3.5783216	0.3084	5.863184	28.17827
232	15.55332	3.5906049	0.3144	5.860081	28.29125
233	15.56814	3.5994863	0.3144	5.855933	28.35825
234	15.57748	3.5932714	0.3205	5.857006	28.29724
235	15.56840	3.5827390	0.3327	5.861137	28.21172
236	15.54261	3.5772048	0.3417	5.865264	28.18178
237	15.51417	3.5773350	0.3508	5.867872	28.20323
238	15.49631	3.5787510	0.3690	5.869092	28.22838
239	15.49143	3.5790109	0.3781	5.869466	28.23415
240	15.49143	3.5762768	0.3841	5.870323	28.21023
241	15.48967	3.5699936	0.3750	5.872456	28.15652
242	15.49104	3.5684818	0.3660	5.872803	28.14232
243	15.49416	3.5735825	0.3539	5.870912	28.18471
244	15.50231	3.5826553	0.3388	5.867310	28.25826
245	15.52285	3.6026120	0.3206	5.859155	28.41816
246	15.54503	3.6163233	0.3206	5.852814	28.52217
247	15.55802	3.6259805	0.3206	5.848598	28.59729
248	15.64495	3.6340917	0.3297	5.838059	28.60527
249	15.80041	3.6350962	0.3419	5.823471	28.50187
250	16.01830	3.6281233	0.3630	5.805673	28.28549
251	16.15285	3.6262804	0.3752	5.793960	28.17414
252	16.19558	3.6261101	0.3994	5.790122	28.14247
253	16.19804	3.6280885	0.4146	5.789299	28.15777
254	16.19498	3.6386866	0.4267	5.786370	28.25122
255	16.20336	3.6382811	0.4297	5.785731	28.24179
256	16.30354	3.6304972	0.4267	5.778988	28.10411
257	16.56306	3.6239973	0.4176	5.757443	27.86698
258	16.81915	3.6110860	0.3934	5.738178	27.58053
259	17.04886	3.5977441	0.3813	5.721442	27.31156
260	17.23870	3.5865215	0.3814	5.707684	27.08973
261	17.36576	3.5781707	0.3571	5.698724	26.93532
262	17.42850	3.5725020	0.3693	5.694742	26.84653
263	17.43877	3.5688225	0.3754	5.694874	26.80910
264	17.40445	3.5676293	0.3845	5.698282	26.82180
265	17.35117	3.5621306	0.4208	5.704622	26.81112
266	17.31089	3.5561686	0.4420	5.709943	26.78795
267	17.26181	3.5570827	0.4662	5.714087	26.82802
268	17.17391	3.5553798	0.4874	5.722482	26.87201
269	17.05206	3.5529975	0.4965	5.734159	26.93305
270	16.92630	3.5495670	0.4875	5.746535	26.98816
271	16.80689	3.5462090	0.4572	5.758357	27.03987
272	16.66544	3.5439070	0.4240	5.771918	27.11562
273	16.46025	3.5436052	0.3997	5.790772	27.25211
274	16.27767	3.5429863	0.3846	5.807730	27.37152
275	16.19698	3.5413958	0.3664	5.815647	27.41328
276	16.16195	3.5403161	0.3665	5.819207	27.42810
277	16.10361	3.5384996	0.3755	5.825151	27.45266
278	16.03954	3.5374270	0.3877	5.831408	27.48764
279	15.97948	3.5356952	0.4059	5.837506	27.51423
280	15.91940	3.5345001	0.4392	5.843452	27.54553
281	15.86450	3.5332663	0.4574	5.848938	27.57298
282	15.81645	3.5320714	0.4665	5.853781	27.59604
283	15.76690	3.5304115	0.4634	5.858915	27.61617
284	15.69466	3.5276542	0.4574	5.866518	27.64265
285	15.61519	3.5270738	0.4272	5.874137	27.69321
286	15.54346	3.5260673	0.3969	5.881177	27.73477
287	15.46557	3.5254547	0.3757	5.888687	27.78423
288	15.40006	3.5254555	0.3485	5.894851	27.83045
289	15.35305	3.5254560	0.3455	5.899281	27.86371
290	15.33631	3.5262375	0.3637	5.900613	27.88241
291	15.33209	3.5260697	0.3909	5.901064	27.88392
292	15.34065	3.5258953	0.4213	5.900312	27.87631
293	15.35538	3.5256820	0.4606	5.898991	27.86400
294	15.36726	3.5246811	0.4939	5.898187	27.84681
295	15.38194	3.5239514	0.5212	5.897035	27.83004
296	15.37694	3.5231575	0.5363	5.897756	27.82662
297	15.34831	3.5219250	0.5516	5.900845	27.83605
298	15.33027	3.5211249	0.5364	5.902800	27.84180
299	15.30868	3.5205378	0.5213	5.905024	27.85194
300	15.24185	3.5204741	0.5152	5.911361	27.89876
301	15.18110	3.5210556	0.5183	5.916927	27.94707
302	15.15017	3.5217400	0.5214	5.919638	27.97512
303	15.13895	3.5220952	0.5395	5.920589	27.98625
304	15.15727	3.5223531	0.5728	5.918771	27.97544
305	15.19699	3.5224560	0.6001	5.914978	27.94805
306	15.22911	3.5225783	0.6304	5.911899	27.92627
307	15.25130	3.5225780	0.6516	5.909801	27.91050
308	15.27707	3.5225906	0.6486	5.907362	27.89232
309	15.29702	3.5225775	0.6395	5.905482	27.87806
310	15.30551	3.5221578	0.6245	5.904812	27.86837
311	15.31186	3.5219448	0.6093	5.904280	27.86200
312	15.29443	3.5219643	0.5973	5.905920	27.87453
313	15.27435	3.5217645	0.6064	5.907880	27.88701
314	15.25311	3.5215711	0.6094	5.909949	27.90038
315	15.22859	3.5215068	0.6397	5.912289	27.91722
316	15.20758	3.5211844	0.6578	5.914380	27.92931
317	15.19640	3.5210942	0.6760	5.915467	27.93646
318	15.19382	3.5209909	0.6882	5.915745	27.93739
319	15.19382	3.5206683	0.6942	5.915847	27.93455
320	15.18613	3.5203780	0.6882	5.916668	27.93747
321	15.17296	3.5198619	0.6701	5.918080	27.94231
322	15.15243	3.5192168	0.6398	5.920230	27.95125
323	15.11722	3.5184430	0.6157	5.923817	27.96954
324	15.07489	3.5180177	0.5914	5.927971	27.99601
325	15.02708	3.5176311	0.5612	5.932639	28.02679
326	14.98024	3.5175929	0.5431	5.937108	28.06001
327	14.92801	3.5174065	0.5552	5.942143	28.09584
328	14.89341	3.5175681	0.5704	5.945391	28.12215
329	14.88566	3.5175940	0.5916	5.946122	28.12795
330	14.89962	3.5176326	0.6037	5.944778	28.11824
331	14.92045	3.5172775	0.6067	5.942907	28.10012
332	14.94571	3.5168450	0.5917	5.940638	28.07815
333	14.95630	3.5160838	0.5765	5.939874	28.06382
334	14.95040	3.5152131	0.5523	5.940717	28.06035
335	14.93019	3.5145297	0.5372	5.942863	28.06881
336	14.89802	3.5144011	0.5251	5.945973	28.09078
337	14.86107	3.5139179	0.5101	5.949656	28.11307
338	14.83549	3.5134474	0.5040	5.952253	28.12732
339	14.81989	3.5131445	0.5040	5.953843	28.13587
340	14.79554	3.5133705	0.5010	5.956098	28.15544
341	14.77211	3.5132805	0.5223	5.958370	28.17155
342	14.75928	3.5130485	0.5374	5.959674	28.17875
343	14.75105	3.5130809	0.5465	5.960451	28.18498
344	14.75200	3.5131067	0.5586	5.960352	28.18451
345	14.76196	3.5135644	0.5557	5.959250	28.18139
346	14.78277	3.5137576	0.5557	5.957195	28.16808
347	14.80333	3.5141571	0.5436	5.955098	28.15679
348	14.82078	3.5142408	0.5558	5.953403	28.14495
349	14.84182	3.5145630	0.5739	5.951288	28.13264
350	14.87368	3.5145304	0.5951	5.948255	28.10940
351	14.90205	3.5144333	0.6254	5.945579	28.08813
352	14.92468	3.5145298	0.6436	5.943390	28.07273
353	14.95033	3.5144328	0.6527	5.940975	28.05346
354	14.98223	3.5144647	0.6406	5.937925	28.03088
355	15.01018	3.5147868	0.6134	5.935161	28.01374
356	15.03294	3.5151799	0.5832	5.932869	28.00094
357	15.05346	3.5158891	0.5408	5.930689	27.99256
358	15.07251	3.5163404	0.5166	5.928734	27.98294
359	15.08764	3.5168434	0.5167	5.927135	27.97657
360	15.09898	3.5168884	0.5288	5.926044	27.96888
361	15.11180	3.5168560	0.5379	5.924837	27.95944
362	15.12528	3.5165721	0.5591	5.923649	27.94733
363	15.14334	3.5163719	0.5561	5.922000	27.93271
364	15.15973	3.5160814	0.5592	5.920538	27.91849
365	15.16954	3.5156492	0.5380	5.919745	27.90771
366	15.17051	3.5153396	0.5229	5.919751	27.90430
367	15.16276	3.5147528	0.4957	5.920673	27.90465
368	15.14817	3.5140565	0.4836	5.922278	27.90890
369	15.13056	3.5131732	0.4564	5.924231	27.91366
370	15.10214	3.5120775	0.4322	5.927281	27.92425
371	15.06234	3.5104211	0.4383	5.931595	27.93800
372	15.01436	3.5096611	0.4505	5.936407	27.96552
373	14.97703	3.5080181	0.4717	5.940492	27.97766
374	14.95534	3.5074706	0.4959	5.942738	27.98833
375	14.90045	3.5075679	0.5141	5.947947	28.02849
376	14.83478	3.5068985	0.5111	5.954442	28.06971
377	14.79867	3.5072146	0.4930	5.957796	28.09850
378	14.78545	3.5078914	0.4597	5.958842	28.11405
379	14.80027	3.5087612	0.4295	5.957141	28.11111
380	14.80282	3.5089223	0.4083	5.956843	28.11070
381	14.80212	3.5088578	0.4174	5.956932	28.11064
382	14.81330	3.5083228	0.4477	5.956035	28.09782
383	14.82871	3.5081809	0.4719	5.954607	28.08547
384	14.84035	3.5080519	0.5023	5.953536	28.07594
385	14.84386	3.5081872	0.5356	5.953156	28.07460
386	14.85180	3.5086318	0.5568	5.952254	28.07284
387	14.84943	3.5091474	0.5629	5.952314	28.07911
388	14.84572	3.5095406	0.5629	5.952541	28.08527
389	14.84885	3.5099208	0.5539	5.952118	28.08639
390	14.85218	3.5103720	0.5327	5.951654	28.08801
391	14.86050	3.5108296	0.5237	5.950711	28.08609
392	14.87189	3.5112742	0.5146	5.949478	28.08185
393	14.88053	3.5118544	0.5177	5.948465	28.08078
394	14.88662	3.5126280	0.5389	5.947634	28.08325
395	14.89539	3.5127568	0.5601	5.946755	28.07808
396	14.91231	3.5130726	0.5783	5.945039	28.06873
397	14.94007	3.5134979	0.6056	5.942254	28.05256
398	14.96561	3.5135621	0.6207	5.939800	28.03482
399	14.99122	3.5135489	0.6087	5.937363	28.01636
400	15.01751	3.5136259	0.5966	5.934836	27.99825
401	15.03628	3.5138837	0.5876	5.932966	27.98711
402	15.04445	3.5139222	0.5694	5.932177	27.98162
403	15.04471	3.5139480	0.5573	5.932144	27.98167
404	15.04561	3.5133999	0.5665	5.932234	27.97618
405	15.04612	3.5144317	0.5786	5.931854	27.98492
406	15.04709	3.5137223	0.5817	5.931990	27.97796
407	15.05494	3.5139802	0.5968	5.931161	27.97463
408	15.06375	3.5144637	0.6151	5.930168	27.97260
409	15.07161	3.5147538	0.6150	5.929329	27.96955
410	15.07528	3.5150827	0.6181	5.928874	27.96983
411	15.07798	3.5151407	0.6181	5.928599	27.96842
412	15.07856	3.5152117	0.6151	5.928521	27.96863
413	15.08114	3.5153084	0.6001	5.928245	27.96765
414	15.08571	3.5154502	0.5940	5.927765	27.96564
415	15.08945	3.5155985	0.5880	5.927363	27.96428
416	15.09202	3.5157597	0.5790	5.927066	27.96387
417	15.09531	3.5144956	0.5820	5.927159	27.95038
418	15.09853	3.5123999	0.5941	5.927523	27.92961
419	15.10678	3.5123676	0.6124	5.926750	27.92344
420	15.11322	3.5149404	0.6215	5.925316	27.94152
421	15.11980	3.5161142	0.6336	5.924316	27.94718
422	15.12682	3.5162108	0.6367	5.923619	27.94302
423	15.13263	3.5163978	0.6337	5.923008	27.94053
424	15.13347	3.5164365	0.6247	5.922916	27.94028
425	15.13308	3.5164365	0.6065	5.922953	27.94056
426	15.13308	3.5165010	0.5944	5.922932	27.94114
427	15.13476	3.5166945	0.5854	5.922711	27.94165
428	15.13566	3.5127219	0.5733	5.923893	27.90602
429	15.13721	3.5114389	0.5885	5.924156	27.89362
430	15.13998	3.5138825	0.6097	5.923113	27.91315
431	15.14327	3.5121738	0.6249	5.923346	27.89576
432	15.14785	3.5157204	0.6431	5.921780	27.92373
433	15.15385	3.5145917	0.6371	5.921571	27.90952
434	15.16605	3.5105618	0.6280	5.921698	27.86539
435	15.17651	3.5164683	0.6159	5.918823	27.90994
436	15.18084	3.5170165	0.6130	5.918239	27.91168
437	15.18219	3.5172423	0.5948	5.918038	27.91271
438	15.18374	3.5130695	0.6010	5.919220	27.87490
439	15.18439	3.5118187	0.6131	5.919557	27.86344
440	15.18413	3.5118832	0.6161	5.919561	27.86419
441	15.18323	3.5113352	0.6192	5.919821	27.86001
442	15.18374	3.5123989	0.6223	5.919434	27.86900
443	15.18684	3.5122700	0.6284	5.919181	27.86566
444	15.19272	3.5121152	0.6314	5.918673	27.86012
445	15.19905	3.5131725	0.6436	5.917736	27.86493
446	15.20203	3.5161455	0.6376	5.916508	27.88896
447	15.20261	3.5165002	0.6376	5.916340	27.89167
448	15.20416	3.5162745	0.6346	5.916265	27.88858
449	15.20435	3.5177581	0.6195	5.915775	27.90149
450	15.20539	3.5156488	0.6135	5.916348	27.88221
451	15.20603	3.5118829	0.6135	5.917484	27.84865
452	15.20526	3.5120183	0.6106	5.917515	27.85039
453	15.20603	3.5153070	0.6197	5.916395	27.87875
454	15.20610	3.5129790	0.6469	5.917130	27.85823
455	15.20442	3.5125599	0.6591	5.917423	27.85573
456	15.20377	3.5126566	0.6651	5.917453	27.85704
457	15.20358	3.5113994	0.6592	5.917871	27.84612
458	15.20526	3.5161971	0.6441	5.916186	27.88712
459	15.20862	3.5123342	0.6350	5.917096	27.85077
460	15.20978	3.5118506	0.6229	5.917139	27.84570
461	15.21088	3.5167711	0.6200	5.915470	27.88818
462	15.21166	3.5202809	0.6291	5.914281	27.91848
463	15.21036	3.5206681	0.6412	5.914281	27.92280
464	15.20946	3.5206874	0.6413	5.914360	27.92361
465	15.20978	3.5204422	0.6413	5.914407	27.92123
466	15.21133	3.5197001	0.6414	5.914496	27.91360
467	15.21347	3.5195968	0.6444	5.914327	27.91118
468	15.21573	3.5196033	0.6475	5.914111	27.90962
469	15.21767	3.5196678	0.6535	5.913907	27.90881
470	15.21922	3.5197645	0.6536	5.913730	27.90856
471	15.22200	3.5198032	0.6567	5.913454	27.90692
472	15.22497	3.5191837	0.6446	5.913369	27.89937
473	15.22782	3.5185321	0.6356	5.913307	27.89163
474	15.22976	3.5186094	0.6205	5.913099	27.89093
475	15.23189	3.5196353	0.6175	5.912571	27.89843
476	15.23286	3.5207969	0.6266	5.912110	27.90795
477	15.23299	3.5211647	0.6388	5.911981	27.91109
478	15.23202	3.5208292	0.6631	5.912180	27.90882
479	15.23015	3.5211841	0.6691	5.912245	27.91327
480	15.22918	3.5211648	0.6570	5.912342	27.91379
481	15.22956	3.5202484	0.6570	5.912597	27.90546
482	15.23008	3.5205388	0.6420	5.912455	27.90765
483	15.23286	3.5206484	0.6330	5.912157	27.90664
484	15.23668	3.5206032	0.6299	5.911811	27.90354
485	15.23739	3.5207646	0.6331	5.911692	27.90445
486	15.23590	3.5210227	0.6422	5.911751	27.90777
487	15.23390	3.5209259	0.6392	5.911971	27.90834
488	15.23131	3.5210550	0.6452	5.912175	27.91131
489	15.22976	3.5213648	0.6393	5.912224	27.91514
490	15.22963	3.5216036	0.6363	5.912160	27.91733
491	15.23047	3.5215714	0.6364	5.912091	27.91645
492	15.23066	3.5211648	0.6424	5.912202	27.91274
493	15.23060	3.5207646	0.6546	5.912335	27.90926
494	15.22982	3.5209260	0.6546	5.912357	27.91123
495	15.22937	3.5213003	0.6425	5.912281	27.91485
496	15.22937	3.5214746	0.6456	5.912226	27.91638
497	15.22963	3.5216682	0.6366	5.912139	27.91790
498	15.22969	3.5218424	0.6305	5.912078	27.91939
499	15.22924	3.5215714	0.6216	5.912207	27.91733
500	15.22879	3.5201839	0.6247	5.912690	27.90546
501	15.22665	3.5189514	0.6307	5.913284	27.89614
502	15.22019	3.5179515	0.6459	5.914214	27.89194
503	15.17993	3.5174359	0.6611	5.918191	27.91600
504	15.02901	3.5176569	0.6551	5.932448	28.02560
505	14.86530	3.5187298	0.6551	5.947698	28.15266
506	14.82110	3.5195433	0.6461	5.951655	28.19177
507	14.83740	3.5197044	0.6401	5.950045	28.18143
508	14.83958	3.5125963	0.6492	5.952140	28.11677
509	14.62095	3.4815689	0.7158	5.983248	27.99814
510	14.15421	3.4442579	0.8188	6.041066	28.00076
511	13.76350	3.4365174	0.9339	6.082258	28.21574
512	13.52160	3.4359448	1.0793	6.106526	28.38907
513	13.34332	3.4337290	1.2367	6.125127	28.50143
514	13.33045	3.4422073	1.4063	6.123458	28.58902
515	13.31273	3.4392911	1.5699	6.126253	28.57539
516	13.23274	3.4320434	1.7515	6.136823	28.56850
517	13.14116	3.4279562	1.9181	6.147482	28.59949
518	13.07901	3.4263988	2.0967	6.154304	28.63180
519	12.99055	3.4164571	2.2905	6.166782	28.60627
520	12.79384	3.3959586	2.4783	6.194126	28.56404
521	12.55767	3.3843434	2.6781	6.222547	28.63433
522	12.30340	3.3752510	2.8810	6.252148	28.74274
523	12.16962	3.3844177	3.0990	6.262647	28.93223
524	12.11900	3.3846089	3.3110	6.267838	28.97311
525	12.09523	3.3774438	3.5168	6.272980	28.92345
526	11.96315	3.3593167	3.7318	6.293556	28.85327
527	11.77939	3.3513638	3.9499	6.315870	28.91976
528	11.62777	3.3503970	4.1649	6.332253	29.02861
529	11.51035	3.3492527	4.3617	6.345134	29.10956
530	11.42058	3.3449383	4.5737	6.356336	29.13850
531	11.34710	3.3422131	4.7857	6.365218	29.17002
532	11.29215	3.3401650	5.0279	6.371881	29.19353
533	11.25279	3.3373714	5.2701	6.377176	29.19750
534	11.22321	3.3358108	5.5063	6.380953	29.20569
535	11.20104	3.3358427	5.7395	6.383318	29.22347
536	11.18109	3.3330945	5.9787	6.386532	29.21252
537	11.14203	3.3289329	6.2027	6.392354	29.20297
538	11.09084	3.3251143	6.4571	6.399357	29.20635
539	11.04582	3.3235876	6.6993	6.404808	29.22714
540	11.00983	3.3218970	6.9446	6.409357	29.23918
541	10.96876	3.3225664	7.1565	6.413528	29.27832
542	10.92475	3.3188892	7.3867	6.419741	29.27741
543	10.88188	3.3177987	7.6047	6.424815	29.30088
544	10.83625	3.3139849	7.8317	6.431277	29.29992
545	10.77661	3.3083397	8.0497	6.440006	29.29221
546	10.67208	3.3012824	8.2648	6.454217	29.30653
547	10.54572	3.2927912	8.4889	6.471458	29.32425
548	10.41389	3.2879713	8.7220	6.487894	29.38270
549	10.29777	3.2846489	8.9491	6.502054	29.44358
550	10.20841	3.2835130	9.1580	6.512401	29.50473
551	10.13838	3.2783023	9.3791	6.522310	29.50972
552	10.04961	3.2713762	9.5910	6.535043	29.51284
553	9.94583	3.2667248	9.8151	6.548553	29.55097
554	9.84707	3.2622577	10.0240	6.561471	29.58695
555	9.75230	3.2587384	10.2269	6.573586	29.62932
556	9.66720	3.2542878	10.4449	6.585043	29.65445
557	9.59654	3.2499394	10.6629	6.594862	29.66875
558	9.52761	3.2470567	10.8961	6.603886	29.69646
559	9.46831	3.2474576	11.1111	6.610436	29.74957
560	9.42600	3.2478021	11.3049	6.615091	29.78812
561	9.38643	3.2468082	11.5259	6.620012	29.81085
562	9.35109	3.2456267	11.7469	6.624539	29.82818
563	9.31413	3.2426263	11.9680	6.630040	29.82836
564	9.27968	3.2437082	12.1921	6.633500	29.86804
565	9.24922	3.2416958	12.3979	6.637846	29.87289
566	9.21873	3.2412649	12.6099	6.641515	29.89392
567	9.18672	3.2384160	12.8400	6.646409	29.89151
568	9.15353	3.2388475	13.0459	6.650019	29.92365
569	9.11747	3.2357870	13.2669	6.655481	29.92250
570	9.08013	3.2327026	13.4790	6.661109	29.92217
571	9.03490	3.2311300	13.6940	6.666991	29.94396
572	8.98770	3.2281410	13.9058	6.673730	29.95291
573	8.94786	3.2293709	14.1239	6.677778	29.99903
574	8.91799	3.2281419	14.3328	6.681763	30.01151
575	8.89805	3.2276492	14.5448	6.684282	30.02320
576	8.87904	3.2265701	14.7568	6.686953	30.02806
577	8.85378	3.2242312	14.9778	6.690905	30.02522
578	8.82572	3.2230902	15.1807	6.694655	30.03711
579	8.79794	3.2223859	15.3806	6.698182	30.05328
580	8.77361	3.2219871	15.5925	6.701178	30.06970
581	8.74902	3.2197742	15.7954	6.705012	30.06760
582	8.71550	3.2170384	16.0043	6.710119	30.06767
583	8.68195	3.2142785	16.2162	6.715246	30.06750
584	8.64583	3.2124663	16.4252	6.720257	30.07933
585	8.60602	3.2113333	16.6341	6.725401	30.10136
586	8.56710	3.2089490	16.8400	6.731007	30.10966
587	8.52737	3.2069201	17.0611	6.736558	30.12236
588	8.47565	3.2010968	17.3033	6.745230	30.10580
589	8.41431	3.2029263	17.5183	6.751589	30.17719
590	8.35334	3.2000284	17.7242	6.760056	30.19910
591	8.30029	3.1991459	17.9301	6.766691	30.23533
592	8.25016	3.1963673	18.1391	6.773860	30.24927
593	8.20206	3.1954230	18.3449	6.779961	30.28070
594	8.15472	3.1926270	18.5599	6.786832	30.29210
595	8.10344	3.1900369	18.7628	6.794087	30.30909
596	8.04347	3.1875594	18.9808	6.802333	30.33480
597	7.97273	3.1847849	19.1868	6.812012	30.36677
598	7.90467	3.1836931	19.3896	6.820613	30.41429
599	7.84930	3.1826634	19.5985	6.827690	30.45153
600	7.80592	3.1816338	19.8075	6.833346	30.47838
601	7.77112	3.1806662	20.0193	6.837956	30.49844
602	7.74253	3.1793016	20.2344	6.842015	30.50886
603	7.71937	3.1775713	20.4585	6.845602	30.51066
604	7.69769	3.1752460	20.6916	6.849294	30.50483
605	7.68073	3.1749424	20.9217	6.851473	30.51635
606	7.66836	3.1739443	21.1669	6.853429	30.51646
607	7.65870	3.1733122	21.4153	6.854891	30.51809
608	7.64730	3.1731884	21.6514	6.856321	30.52667
609	7.63273	3.1724385	21.8815	6.858427	30.53136
610	7.61089	3.1720545	22.1207	6.861235	30.54634
611	7.58526	3.1709888	22.3509	6.864821	30.55738
612	7.55913	3.1687521	22.5841	6.869027	30.55639
613	7.53548	3.1681515	22.8294	6.872161	30.57066
614	7.51533	3.1681517	23.0563	6.874593	30.58831
615	7.49933	3.1674024	23.2986	6.876880	30.59428
616	7.49039	3.1678486	23.5318	6.877750	30.60683
617	7.48477	3.1670929	23.7679	6.878792	30.60360
618	7.47651	3.1666718	23.9920	6.879992	30.60627
619	7.45854	3.1637798	24.2372	6.883542	30.59108
620	7.42608	3.1615514	24.4885	6.888530	30.59573
621	7.38331	3.1602520	24.7337	6.894327	30.61946
622	7.34153	3.1592684	24.9730	6.899860	30.64574
623	7.30315	3.1586685	25.2123	6.904805	30.67318
624	7.26966	3.1577346	25.4605	6.909321	30.69272
625	7.23766	3.1559902	25.6967	6.914051	30.70225
626	7.19081	3.1541969	25.9389	6.920618	30.72446
627	7.14073	3.1529606	26.1811	6.927320	30.75559
628	7.09894	3.1525097	26.4203	6.932638	30.78788
629	7.06900	3.1517618	26.6565	6.936659	30.80642
630	7.04829	3.1511005	26.8927	6.939515	30.81767
631	7.02775	3.1494502	27.1531	6.942835	30.81806
632	7.00961	3.1481092	27.4195	6.945713	30.81965
633	6.99371	3.1494878	27.6557	6.946989	30.84871
634	6.97963	3.1487957	27.8980	6.949055	30.85371
635	6.96665	3.1485610	28.1462	6.950764	30.86269
636	6.95440	3.1483758	28.3733	6.952360	30.87156
637	6.93904	3.1472698	28.6095	6.954788	30.87323
638	6.92654	3.1471773	28.8547	6.956371	30.88334
639	6.91466	3.1467016	29.0879	6.958065	30.88873
640	6.90263	3.1454969	29.3332	6.960137	30.88634
641	6.88393	3.1440392	29.5754	6.963154	30.88719
642	6.84892	3.1430513	29.8024	6.967946	30.90782
643	6.80887	3.1419153	30.0326	6.973436	30.93141
644	6.77449	3.1413661	30.2718	6.977944	30.95631
645	6.74360	3.1405452	30.5049	6.982162	30.97513
646	6.71799	3.1401565	30.7411	6.985516	30.99392
647	6.69674	3.1397678	30.9742	6.988337	31.00879
648	6.68049	3.1390951	31.2134	6.990681	31.01603
649	6.66848	3.1389903	31.4436	6.992221	31.02566
650	6.65488	3.1383362	31.6737	6.994233	31.03072
651	6.63855	3.1375586	31.9099	6.996643	31.03690
652	6.62402	3.1373304	32.1461	6.998558	31.04747
653	6.61327	3.1370220	32.3701	7.000047	31.05375
654	6.60750	3.1367259	32.6064	7.000913	31.05563
655	6.60364	3.1363372	32.8424	7.001590	31.05476
656	6.59777	3.1359485	33.0756	7.002515	31.05572
657	6.58862	3.1353809	33.3179	7.003938	31.05770
658	6.57843	3.1352021	33.5572	7.005294	31.06488
659	6.57005	3.1345173	33.7932	7.006680	31.06488
660	6.55951	3.1337771	34.0385	7.008362	31.06622
661	6.54311	3.1327902	34.2807	7.010894	31.07018
662	6.52616	3.1328522	34.5230	7.012971	31.08617
663	6.51101	3.1326118	34.7622	7.014977	31.09720
664	6.49766	3.1322049	35.0075	7.016844	31.10477
665	6.48878	3.1321680	35.2467	7.017970	31.11234
666	6.48319	3.1316007	35.4949	7.018955	31.11109
667	6.47913	3.1316070	35.7312	7.019461	31.11474
668	6.47334	3.1314221	35.9673	7.020279	31.11788
669	6.46677	3.1310336	36.2094	7.021296	31.11948
670	6.46072	3.1306452	36.4578	7.022249	31.12061
671	6.45338	3.1303863	36.6940	7.023296	31.12434
672	6.44457	3.1299918	36.9393	7.024596	31.12793
673	6.43570	3.1290978	37.2027	7.026156	31.12606
674	6.42601	3.1278833	37.4994	7.027980	31.12139
675	6.41617	3.1286295	37.7568	7.028834	31.13846
676	6.40521	3.1290737	37.9959	7.029980	31.15325
677	6.39666	3.1284757	38.2351	7.031352	31.15437
678	6.39241	3.1285683	38.4653	7.031839	31.15916
679	6.38570	3.1280937	38.7014	7.032920	31.15995
680	6.37710	3.1274958	38.9498	7.034299	31.16110
681	6.36615	3.1264234	39.1890	7.036212	31.15918
682	6.34937	3.1256161	39.4372	7.038719	31.16551
683	6.33076	3.1249384	39.6824	7.041391	31.17494
684	6.31072	3.1243470	39.9277	7.044198	31.18665
685	6.28599	3.1235463	40.1670	7.047700	31.20034
686	6.25965	3.1230167	40.4183	7.051269	31.21853
687	6.23393	3.1226843	40.6544	7.054661	31.23835
688	6.20645	3.1212614	40.8997	7.058834	31.24774
689	6.17816	3.1207936	41.1450	7.062623	31.26845
690	6.15402	3.1201041	41.3902	7.066009	31.28292
691	6.13524	3.1197471	41.6416	7.068554	31.29614
692	6.11988	3.1193346	41.8868	7.070700	31.30562
693	6.10838	3.1194149	42.1413	7.072109	31.31699
694	6.09785	3.1192734	42.3804	7.073509	31.32502
695	6.08657	3.1187748	42.6317	7.075189	31.32979
696	6.07757	3.1185101	42.8801	7.076461	31.33504
697	6.07020	3.1182393	43.1373	7.077533	31.33871
698	6.06375	3.1178268	43.3857	7.078562	31.33997
699	6.06065	3.1178516	43.6370	7.078944	31.34299
700	6.05679	3.1180919	43.8792	7.079312	31.34912
701	6.05293	3.1180058	44.1154	7.079847	31.35161
702	6.05029	3.1175871	44.3667	7.080400	31.34928
703	6.04790	3.1172917	44.6211	7.080858	31.34808
704	6.04425	3.1169962	44.8724	7.081476	31.34805
705	6.03932	3.1168794	45.1146	7.082161	31.35119
706	6.03379	3.1166640	45.3630	7.082975	31.35380
707	6.02871	3.1166087	45.6023	7.083647	31.35776
708	6.02394	3.1164611	45.8565	7.084330	31.36041
709	6.01927	3.1161041	46.1077	7.085108	31.36064
710	6.01491	3.1161658	46.3531	7.085631	31.36525
711	6.01131	3.1161105	46.6014	7.086119	31.36785
712	6.00786	3.1158151	46.8375	7.086711	31.36764
713	6.00608	3.1153535	47.1040	7.087179	31.36402
714	6.00364	3.1148057	47.3795	7.087775	31.36004
715	5.99994	3.1149843	47.6338	7.088155	31.36534
716	5.99436	3.1149783	47.8822	7.088867	31.37032
717	5.98934	3.1145722	48.1396	7.089715	31.37032
718	5.98599	3.1143938	48.3970	7.090235	31.37131
719	5.98371	3.1144800	48.6423	7.090484	31.37427
720	5.98113	3.1144494	48.8936	7.090831	31.37620
721	5.97849	3.1143018	49.1448	7.091246	31.37688
722	5.97606	3.1141049	49.3901	7.091660	31.37683
723	5.97367	3.1139511	49.6415	7.092046	31.37720
724	5.97033	3.1135942	49.8958	7.092658	31.37620
725	5.96404	3.1131205	50.1592	7.093702	31.37662
726	5.95852	3.1128868	50.4077	7.094525	31.37901
727	5.95452	3.1130592	50.6528	7.094947	31.38453
728	5.95066	3.1129731	50.9011	7.095483	31.38702
729	5.94600	3.1127333	51.1464	7.096201	31.38855
730	5.93952	3.1122657	51.3978	7.097268	31.38923
731	5.93126	3.1118474	51.6460	7.098533	31.39210
732	5.92564	3.1118599	51.8974	7.099242	31.39733
733	5.92286	3.1117307	52.1516	7.099667	31.39836
734	5.91901	3.1116139	52.4091	7.100219	31.40050
735	5.91592	3.1115464	52.6664	7.100650	31.40249
736	5.91233	3.1113803	52.9178	7.101196	31.40385
737	5.90585	3.1109929	53.1660	7.102222	31.40542
738	5.89755	3.1101747	53.4235	7.103702	31.40387
739	5.88824	3.1092522	53.6748	7.105365	31.40209
740	5.87777	3.1075363	53.9292	7.107587	31.39251
741	5.85997	3.1051260	54.1896	7.111102	31.38197
742	5.83424	3.1041488	54.4349	7.114878	31.39482
743	5.81060	3.1034975	54.6891	7.118222	31.40939
744	5.79252	3.1029815	54.9435	7.120792	31.42030
745	5.77910	3.1026436	55.2040	7.122679	31.42889
746	5.76911	3.1025577	55.4493	7.123999	31.43711
747	5.76048	3.1024534	55.7096	7.125156	31.44385
748	5.75322	3.1021462	55.9549	7.126245	31.44706
749	5.74903	3.1018759	56.2063	7.126924	31.44781
750	5.74606	3.1018330	56.4514	7.127331	31.44998
751	5.74197	3.1017594	56.6846	7.127894	31.45285
752	5.73774	3.1013170	56.9481	7.128670	31.45171
753	5.73411	3.1007456	57.2358	7.129437	31.44855
754	5.72902	3.1006720	57.4992	7.130130	31.45234
755	5.72247	3.1008504	57.7506	7.130875	31.46034
756	5.71798	3.1008996	57.9928	7.131426	31.46496
757	5.71667	3.1009981	58.2532	7.131547	31.46716
758	5.71859	3.1024977	58.5106	7.130522	31.48208
759	5.72337	3.1031370	58.7680	7.129584	31.48466
760	5.72589	3.1030018	59.0374	7.129340	31.48067
761	5.72594	3.1027314	59.3069	7.129482	31.47745
762	5.72468	3.1028606	59.5583	7.129580	31.47996
763	5.72403	3.1033524	59.8187	7.129411	31.48597
764	5.72474	3.1038566	60.0821	7.129063	31.49084
765	5.72625	3.1041025	60.3456	7.128748	31.49206
766	5.72796	3.1042686	60.6000	7.128448	31.49220
767	5.72887	3.1043547	60.8453	7.128293	31.49220
768	5.73008	3.1042257	61.1117	7.128213	31.48950
769	5.73159	3.1042073	61.3782	7.128037	31.48775
770	5.73169	3.1042074	61.6386	7.128030	31.48754
771	5.73093	3.1042259	61.8868	7.128122	31.48833
772	5.73043	3.1042075	62.1352	7.128201	31.48848
773	5.73068	3.1041523	62.3955	7.128204	31.48749
774	5.73139	3.1039802	62.6561	7.128210	31.48478
775	5.73225	3.1040602	62.9134	7.128065	31.48475
776	5.73225	3.1040603	63.1709	7.128071	31.48463
777	5.73083	3.1038268	63.4403	7.128378	31.48320
778	5.72967	3.1038268	63.6978	7.128532	31.48416
779	5.72791	3.1039437	63.9491	7.128700	31.48700
780	5.72650	3.1038578	64.2064	7.128931	31.48723
781	5.72610	3.1037656	64.4578	7.129036	31.48645
782	5.72524	3.1036489	64.7091	7.129212	31.48582
783	5.72413	3.1035752	64.9695	7.129397	31.48590
784	5.72403	3.1035876	65.2298	7.129409	31.48601
785	5.72363	3.1034156	65.4873	7.129556	31.48433
786	5.72272	3.1034526	65.7447	7.129658	31.48547
787	5.72075	3.1034465	65.9961	7.129917	31.48711
788	5.71894	3.1034159	66.2504	7.130169	31.48834
789	5.71763	3.1032992	66.5019	7.130403	31.48813
790	5.71622	3.1032378	66.7561	7.130620	31.48864
791	5.71400	3.1030289	67.0197	7.131018	31.48824
792	5.71133	3.1026725	67.3043	7.131551	31.48659
793	5.70947	3.1025865	67.5797	7.131839	31.48724
794	5.70639	3.1025866	67.8312	7.132236	31.48999
795	5.70186	3.1024884	68.0946	7.132871	31.49299
796	5.69692	3.1020891	68.3520	7.133714	31.49299
797	5.69098	3.1019110	68.6124	7.134570	31.49642
798	5.68519	3.1016776	68.8667	7.135436	31.49909
799	5.67945	3.1015302	69.1302	7.136250	31.50267
800	5.67422	3.1014443	69.3906	7.136968	31.50647
801	5.66903	3.1013707	69.6388	7.137673	31.51037
802	5.66586	3.1013216	69.8841	7.138108	31.51267
803	5.66420	3.1012049	70.1385	7.138387	31.51279
804	5.66319	3.1011190	70.3928	7.138566	31.51264
805	5.66234	3.1011744	70.6382	7.138651	31.51394
806	5.66143	3.1010884	70.8926	7.138818	31.51370
807	5.66063	3.1009656	71.1529	7.138991	31.51295
808	5.65972	3.1009718	71.4013	7.139109	31.51375
809	5.65876	3.1009412	71.6557	7.139252	31.51417
810	5.65741	3.1009966	71.9041	7.139402	31.51595
811	5.65605	3.1009414	72.1494	7.139610	31.51648
812	5.65434	3.1008247	72.4097	7.139895	31.51664
813	5.65378	3.1007818	72.6670	7.139994	31.51655
814	5.65368	3.1007634	72.9214	7.140022	31.51632
815	5.65288	3.1006467	73.1759	7.140192	31.51564
816	5.65217	3.1005608	73.4364	7.140333	31.51521
817	5.65137	3.1004441	73.6907	7.140503	31.51452
818	5.65006	3.1004135	73.9481	7.140691	31.51528
819	5.64830	3.1003153	74.2024	7.140973	31.51570
820	5.64659	3.1001740	74.4599	7.141271	31.51559
821	5.64453	3.1000635	74.7172	7.141598	31.51615
822	5.64246	3.1000575	74.9806	7.141871	31.51789
823	5.64096	3.1000883	75.2290	7.142052	31.51952
824	5.63985	3.0999716	75.4774	7.142261	31.51913
825	5.63854	3.0998550	75.7377	7.142495	31.51891
826	5.63784	3.0999104	76.0042	7.142561	31.52007
827	5.63754	3.0998490	76.2616	7.142638	31.51954
828	5.63754	3.0999105	76.5190	7.142611	31.52010
829	5.63588	3.0998861	76.7794	7.142842	31.52126
830	5.63311	3.0996342	77.0368	7.143333	31.52089
831	5.63039	3.0992350	77.3245	7.143896	31.51880
832	5.62728	3.0987375	77.6000	7.144563	31.51599
833	5.62320	3.0984857	77.8696	7.145221	31.51683
834	5.61903	3.0983261	78.1270	7.145844	31.51882
835	5.61466	3.0981481	78.3996	7.146502	31.52078
836	5.61074	3.0981113	78.6540	7.147028	31.52391
837	5.60772	3.0977674	78.9203	7.147600	31.52274
838	5.60164	3.0959741	79.1868	7.149329	31.50811
839	5.59149	3.0961216	79.4472	7.150554	31.51915
840	5.58506	3.0968527	79.7106	7.150996	31.53328
841	5.58200	3.0969695	79.9651	7.151331	31.53734
842	5.58014	3.0970249	80.2286	7.151546	31.53958
843	5.57933	3.0971171	80.4890	7.151605	31.54125
844	5.57893	3.0971479	80.7403	7.151646	31.54185
845	5.57893	3.0971787	81.0006	7.151636	31.54207
846	5.57923	3.0970927	81.2642	7.151649	31.54069
847	5.57953	3.0971481	81.5215	7.151587	31.54091
848	5.57958	3.0971482	81.7789	7.151586	31.54074
849	5.57943	3.0971790	82.0455	7.151595	31.54110
850	5.57923	3.0971790	82.3060	7.151627	31.54116
851	5.57913	3.0971791	82.5603	7.151645	31.54114
852	5.57863	3.0971792	82.8207	7.151715	31.54148
853	5.57773	3.0971179	83.0599	7.151869	31.54152
854	5.57727	3.0970627	83.3233	7.151961	31.54120
855	5.57652	3.0968539	83.5866	7.152174	31.53943
856	5.57542	3.0967803	83.8472	7.152360	31.53951
857	5.57396	3.0967374	84.1047	7.152575	31.54026
858	5.57185	3.0967068	84.3620	7.152866	31.54177
859	5.57014	3.0966516	84.6163	7.153120	31.54263
860	5.56929	3.0965903	84.8768	7.153267	31.54261
861	5.56889	3.0965351	85.1433	7.153354	31.54224
862	5.56783	3.0964062	85.4068	7.153563	31.54165
863	5.56638	3.0962404	85.6671	7.153842	31.54102
864	5.56492	3.0960317	85.9275	7.154145	31.53990
865	5.56316	3.0957677	86.1850	7.154515	31.53845
866	5.56025	3.0955038	86.4424	7.155033	31.53808
867	5.55744	3.0955714	86.6968	7.155362	31.54136
868	5.55558	3.0955900	86.9633	7.155596	31.54318
869	5.55433	3.0954734	87.2448	7.155825	31.54291
870	5.55358	3.0954121	87.5356	7.155960	31.54278
871	5.55267	3.0955043	87.8142	7.156033	31.54453
872	5.55117	3.0956210	88.0868	7.156170	31.54713
873	5.54976	3.0956334	88.3562	7.156350	31.54846
874	5.54936	3.0957133	88.6168	7.156365	31.54961
875	5.55031	3.0959468	88.8800	7.156125	31.55122
876	5.55177	3.0962846	89.1405	7.155766	31.55354
877	5.55347	3.0965611	89.4010	7.155407	31.55493
878	5.55403	3.0966533	89.6614	7.155294	31.55532
879	5.55403	3.0967148	89.9220	7.155267	31.55589
880	5.55378	3.0968008	90.1762	7.155259	31.55697
881	5.55332	3.0968439	90.4456	7.155300	31.55775
882	5.55327	3.0969177	90.7122	7.155274	31.55850
883	5.55337	3.0970038	90.9636	7.155221	31.55926
884	5.55352	3.0971820	91.2240	7.155114	31.56100
885	5.55378	3.0971513	91.4875	7.155104	31.56029
886	5.55363	3.0970961	91.7480	7.155158	31.55969
887	5.55332	3.0970286	92.0053	7.155238	31.55908
888	5.55292	3.0969734	92.2747	7.155325	31.55871
889	5.55247	3.0970042	92.5352	7.155372	31.55935
890	5.55242	3.0969982	92.7958	7.155388	31.55921
891	5.55257	3.0971211	93.0500	7.155309	31.56033
892	5.55322	3.0972133	93.3165	7.155183	31.56063
893	5.55418	3.0974652	93.5769	7.154933	31.56245
894	5.55493	3.0976803	93.8343	7.154729	31.56404
895	5.55498	3.0980059	94.0916	7.154556	31.56754
896	5.55533	3.0982394	94.3401	7.154393	31.56972
897	5.55568	3.0983316	94.6037	7.154306	31.57031
898	5.55629	3.0984484	94.8641	7.154173	31.57093
899	5.55679	3.0984915	95.1305	7.154092	31.57082
900	5.55724	3.0985346	95.3908	7.154017	31.57075
901	5.55749	3.0985838	95.6543	7.153965	31.57094
902	5.55759	3.0986269	95.9117	7.153935	31.57121
903	5.55769	3.0986516	96.1691	7.153915	31.57127
904	5.55749	3.0986455	96.4236	7.153950	31.57127
905	5.55729	3.0986517	96.6870	7.153978	31.57140
906	5.55704	3.0985965	96.9414	7.154045	31.57089
907	5.55664	3.0985843	97.2019	7.154109	31.57100
908	5.55659	3.0985352	97.4712	7.154147	31.57037
909	5.55614	3.0985353	97.7438	7.154211	31.57066
910	5.55568	3.0985231	98.0104	7.154282	31.57082
911	5.55493	3.0985355	98.2766	7.154377	31.57154
912	5.55393	3.0985356	98.5281	7.154511	31.57236
913	5.55322	3.0985541	98.7826	7.154597	31.57310
914	5.55287	3.0985357	99.0338	7.154658	31.57311
915	5.55282	3.0984805	99.2943	7.154699	31.57240
916	5.55247	3.0984253	99.5578	7.154779	31.57198
917	5.55222	3.0984192	99.8182	7.154820	31.57203
918	5.55177	3.0983886	100.0696	7.154900	31.57198
919	5.55147	3.0983948	100.3240	7.154941	31.57221
920	5.55127	3.0983642	100.5874	7.154989	31.57193
921	5.55086	3.0983336	100.8388	7.155062	31.57184
922	5.55016	3.0983336	101.0962	7.155158	31.57238
923	5.54961	3.0983337	101.3564	7.155234	31.57277
924	5.54936	3.0983645	101.6078	7.155256	31.57323
925	5.54906	3.0983032	101.8744	7.155333	31.57269
926	5.54866	3.0982725	102.1319	7.155406	31.57260
927	5.54851	3.0982419	102.4075	7.155448	31.57226
928	5.54836	3.0982727	102.6680	7.155457	31.57263
929	5.54800	3.0982728	102.9252	7.155507	31.57283
930	5.54745	3.0982114	103.1886	7.155616	31.57253
931	5.54720	3.0982422	103.4432	7.155638	31.57299
932	5.54680	3.0982177	103.7155	7.155708	31.57296
933	5.54660	3.0981810	103.9669	7.155759	31.57261
934	5.54610	3.0982179	104.2305	7.155810	31.57337
935	5.54559	3.0981873	104.4878	7.155896	31.57338
936	5.54539	3.0981812	104.7511	7.155931	31.57337
937	5.54559	3.0982181	105.0117	7.155892	31.57347
938	5.54564	3.0982182	105.2721	7.155891	31.57330
939	5.54600	3.0982429	105.5296	7.155839	31.57312
940	5.54600	3.0982429	105.7808	7.155845	31.57300
941	5.54595	3.0982184	106.0382	7.155870	31.57265
942	5.54580	3.0982124	106.2896	7.155898	31.57260
943	5.54559	3.0982186	106.5502	7.155926	31.57273
944	5.54559	3.0981880	106.8014	7.155948	31.57227
945	5.54544	3.0982433	107.0587	7.155944	31.57291
946	5.54524	3.0982188	107.3254	7.155989	31.57269
947	5.54504	3.0981513	107.5947	7.156056	31.57199
948	5.54459	3.0980408	107.8705	7.156179	31.57103
949	5.54394	3.0980409	108.1369	7.156268	31.57152
950	5.54354	3.0981209	108.4033	7.156283	31.57267
951	5.54314	3.0980718	108.6638	7.156366	31.57237
952	5.54248	3.0979798	108.9333	7.156505	31.57181
953	5.54188	3.0979983	109.1938	7.156578	31.57246
954	5.54153	3.0980106	109.4541	7.156622	31.57280
955	5.54123	3.0980107	109.7147	7.156666	31.57296
956	5.54083	3.0979985	109.9690	7.156730	31.57308
957	5.54048	3.0980109	110.2232	7.156774	31.57342
958	5.53982	3.0979802	110.4805	7.156880	31.57357
959	5.53977	3.0980295	110.7412	7.156866	31.57404
960	5.54012	3.0980971	110.9954	7.156791	31.57435
961	5.54012	3.0979498	111.2560	7.156875	31.57257
962	5.53907	3.0977471	111.5103	7.157123	31.57115
963	5.53762	3.0976858	111.7647	7.157347	31.57170
964	5.53651	3.0975999	112.0311	7.157540	31.57164
965	5.53536	3.0976245	112.2887	7.157680	31.57287
966	5.53466	3.0976615	112.5428	7.157756	31.57383
967	5.53430	3.0976616	112.7974	7.157807	31.57404
968	5.53400	3.0976248	113.0607	7.157871	31.57378
969	5.53390	3.0976310	113.3183	7.157886	31.57382
970	5.53355	3.0976249	113.5816	7.157941	31.57395
971	5.53325	3.0976005	113.8361	7.157998	31.57383
972	5.53305	3.0976313	114.0965	7.158013	31.57424
973	5.53270	3.0975638	114.3600	7.158100	31.57369
974	5.53134	3.0972752	114.6233	7.158432	31.57158
975	5.52909	3.0971585	114.8808	7.158789	31.57226
976	5.52693	3.0970972	115.1381	7.159103	31.57346
977	5.52497	3.0969806	115.3866	7.159421	31.57387
978	5.52332	3.0969254	115.6530	7.159668	31.57467
979	5.52161	3.0968211	115.9012	7.159947	31.57497
980	5.52021	3.0967475	116.1647	7.160172	31.57533
981	5.51900	3.0967169	116.4131	7.160348	31.57600
982	5.51780	3.0966310	116.6676	7.160553	31.57604
983	5.51610	3.0964529	116.9280	7.160872	31.57550
984	5.51384	3.0963056	117.1853	7.161245	31.57584
985	5.51158	3.0962013	117.4398	7.161595	31.57666
986	5.50948	3.0961032	117.7002	7.161923	31.57740
987	5.50782	3.0960173	117.9758	7.162187	31.57785
988	5.50677	3.0960112	118.2483	7.162331	31.57864
989	5.50587	3.0959868	118.5116	7.162465	31.57908
990	5.50506	3.0959193	118.7752	7.162610	31.57895
991	5.50426	3.0958948	119.0417	7.162732	31.57930
992	5.50351	3.0958949	119.3112	7.162834	31.57987
993	5.50261	3.0958581	119.5805	7.162975	31.58018
994	5.50140	3.0958091	119.8471	7.163162	31.58063
995	5.49945	3.0956925	120.1167	7.163480	31.58102
996	5.49694	3.0956128	120.3860	7.163850	31.58234
997	5.49489	3.0955453	120.6557	7.164155	31.58338
998	5.49298	3.0955454	120.9130	7.164405	31.58505
999	5.49133	3.0956131	121.1402	7.164586	31.58725
1000	5.49032	3.0972530	121.2706	7.163847	31.60665
1001	5.49027	3.0980761	121.3041	7.163417	31.61597
1002	5.49549	3.0980023	121.2559	7.162788	31.61026
1003	5.50386	3.0974248	121.1261	7.162019	31.59594
1004	5.50983	3.0974861	120.9234	7.161218	31.59112
1005	5.51153	3.0978730	120.7512	7.160790	31.59397
1006	5.51178	3.0978668	120.6548	7.160759	31.59371
1007	5.51238	3.0980327	120.5733	7.160592	31.59505
1008	5.51218	3.0983951	120.4887	7.160424	31.59937
1009	5.51273	3.0985425	120.3801	7.160273	31.60057
1010	5.51464	3.0988066	120.2775	7.159886	31.60181
1011	5.51640	3.0990155	120.1897	7.159549	31.60256
1012	5.51765	3.0991014	120.0995	7.159341	31.60239
1013	5.51961	3.0991505	119.9787	7.159062	31.60117
1014	5.52367	3.0992488	119.8697	7.158487	31.59851
1015	5.52788	3.0993654	119.7553	7.157884	31.59592
1016	5.53004	3.0990889	119.6163	7.157751	31.59085
1017	5.53230	3.0988369	119.4622	7.157592	31.58596
1018	5.53606	3.0988368	119.3111	7.157108	31.58250
1019	5.53576	3.0988982	119.1570	7.157110	31.58355
1020	5.53360	3.0988982	119.0000	7.157383	31.58565
1021	5.53180	3.0986893	118.8488	7.157721	31.58506
1022	5.53084	3.0986524	118.6826	7.157859	31.58562
1023	5.53149	3.0986892	118.5255	7.157752	31.58550
1024	5.53180	3.0988059	118.3532	7.157648	31.58662
1025	5.53124	3.0988673	118.1870	7.157682	31.58791
1026	5.52974	3.0986583	117.9935	7.157981	31.58706
1027	5.52939	3.0991621	117.7883	7.157755	31.59317
1028	5.53049	3.0999239	117.5947	7.157205	31.60082
1029	5.53175	3.1000160	117.4286	7.156992	31.60076
1030	5.53270	3.1001880	117.2504	7.156775	31.60189
1031	5.53435	3.1002678	117.0598	7.156517	31.60132
1032	5.53586	3.1000158	116.8725	7.156454	31.59716
1033	5.53551	3.0998314	116.6852	7.156592	31.59550
1034	5.53370	3.0996900	116.5070	7.156894	31.59569
1035	5.53039	3.0995733	116.3255	7.157375	31.59757
1036	5.52728	3.0994872	116.1382	7.157814	31.59961
1037	5.52517	3.0993643	115.9417	7.158145	31.60030
1038	5.52347	3.0989281	115.7545	7.158590	31.59707
1039	5.52116	3.0985287	115.5580	7.159092	31.59483
1040	5.51900	3.0983382	115.3795	7.159465	31.59479
1041	5.51780	3.0981907	115.1893	7.159693	31.59435
1042	5.51745	3.0982767	115.0048	7.159688	31.59574
1043	5.51790	3.0983381	114.8113	7.159594	31.59610
1044	5.51815	3.0983073	114.6119	7.159573	31.59561
1045	5.51800	3.0979694	114.4216	7.159767	31.59203
1046	5.51775	3.0978342	114.2373	7.159867	31.59083
1047	5.51775	3.0978955	114.0529	7.159830	31.59161
1048	5.51855	3.0978402	113.8564	7.159752	31.59033
1049	5.51951	3.0977787	113.6691	7.159659	31.58883
1050	5.51986	3.0977479	113.4726	7.159626	31.58825
1051	5.52046	3.0978400	113.2790	7.159495	31.58881
1052	5.52131	3.0979812	113.0886	7.159307	31.58970
1053	5.52196	3.0979811	112.8983	7.159219	31.58918
1054	5.52236	3.0979995	112.6990	7.159154	31.58910
1055	5.52297	3.0979257	112.5054	7.159111	31.58780
1056	5.52372	3.0978090	112.3151	7.159073	31.58587
1057	5.52517	3.0978642	112.1248	7.158853	31.58522
1058	5.52673	3.0980115	111.9100	7.158571	31.58552
1059	5.52863	3.0981220	111.7104	7.158264	31.58508
1060	5.53004	3.0980974	111.4808	7.158092	31.58359
1061	5.53094	3.0980973	111.2599	7.157972	31.58285
1062	5.53154	3.0979989	111.0364	7.157942	31.58128
1063	5.53220	3.0980111	110.8158	7.157847	31.58091
1064	5.53285	3.0979803	110.5919	7.157774	31.58006
1065	5.53330	3.0979373	110.3591	7.157734	31.57926
1066	5.53365	3.0979249	110.1293	7.157691	31.57890
1067	5.53400	3.0978634	109.9088	7.157673	31.57799
1068	5.53425	3.0979371	109.6821	7.157597	31.57869
1069	5.53456	3.0979493	109.4583	7.157547	31.57866
1070	5.53456	3.0979246	109.2256	7.157555	31.57849
1071	5.53440	3.0978079	108.9960	7.157631	31.57742
1072	5.53405	3.0978078	108.7721	7.157671	31.57786
1073	5.53395	3.0978077	108.5454	7.157678	31.57806
1074	5.53395	3.0977155	108.3186	7.157722	31.57713
1075	5.53385	3.0976847	108.0919	7.157746	31.57699
1076	5.53420	3.0977461	107.8499	7.157663	31.57747
1077	5.53491	3.0977460	107.6113	7.157568	31.57692
1078	5.53581	3.0977766	107.3904	7.157431	31.57653
1079	5.53671	3.0978687	107.1639	7.157262	31.57683
1080	5.53757	3.0978932	106.9340	7.157134	31.57642
1081	5.53802	3.0978624	106.7012	7.157088	31.57576
1082	5.53862	3.0978992	106.4806	7.156986	31.57571
1083	5.53917	3.0979237	106.2536	7.156897	31.57558
1084	5.53987	3.0979482	106.0271	7.156789	31.57531
1085	5.54028	3.0979973	105.7973	7.156707	31.57559
1086	5.54078	3.0980402	105.5676	7.156615	31.57572
1087	5.54103	3.0979787	105.3438	7.156610	31.57490
1088	5.54133	3.0979663	105.1201	7.156573	31.57458
1089	5.54143	3.0979786	104.8874	7.156548	31.57474
1090	5.54198	3.0979785	104.6607	7.156473	31.57433
1091	5.54228	3.0980276	104.4218	7.156403	31.57471
1092	5.54243	3.0979783	104.2013	7.156405	31.57413
1093	5.54258	3.0979783	103.9744	7.156380	31.57409
1094	5.54278	3.0979966	103.7506	7.156340	31.57422
1095	5.54314	3.0979781	103.5209	7.156299	31.57379
1096	5.54309	3.0979228	103.2911	7.156330	31.57333
1097	5.54304	3.0978981	103.0675	7.156344	31.57320
1098	5.54324	3.0979226	102.8406	7.156301	31.57340
1099	5.54359	3.0979779	102.6109	7.156221	31.57380
1100	5.54374	3.0979962	102.3719	7.156187	31.57398
1101	5.54399	3.0979470	102.1483	7.156176	31.57330
1102	5.54394	3.0979346	101.9155	7.156183	31.57332
1103	5.54414	3.0979776	101.6856	7.156130	31.57373
1104	5.54424	3.0979222	101.4709	7.156141	31.57311
1105	5.54424	3.0978976	101.2776	7.156150	31.57293
1106	5.54429	3.0978914	101.0992	7.156143	31.57290
1107	5.54439	3.0978913	100.9270	7.156126	31.57289
1108	5.54454	3.0979343	100.7425	7.156080	31.57332
1109	5.54499	3.0980080	100.5674	7.155979	31.57381
1110	5.54504	3.0978912	100.3979	7.156031	31.57253
1111	5.54469	3.0979649	100.2288	7.156033	31.57377
1112	5.54494	3.0979771	100.0535	7.155990	31.57376
1113	5.54509	3.0979463	99.8751	7.155983	31.57336
1114	5.54509	3.0979647	99.6939	7.155970	31.57365
1115	5.54514	3.0979769	99.5094	7.155952	31.57383
1116	5.54509	3.0978909	99.3129	7.156000	31.57300
1117	5.54509	3.0978969	99.1224	7.155992	31.57316
1118	5.54509	3.0979215	98.9350	7.155975	31.57353
1119	5.54514	3.0978907	98.7445	7.155981	31.57323
1120	5.54514	3.0978968	98.5633	7.155973	31.57338
1121	5.54559	3.0978906	98.3697	7.155915	31.57298
1122	5.54605	3.0979212	98.1884	7.155836	31.57299
1123	5.54660	3.0979642	97.9918	7.155739	31.57305
1124	5.54680	3.0979457	97.8104	7.155719	31.57274
1125	5.54710	3.0979640	97.6139	7.155666	31.57276
1126	5.54735	3.0980070	97.4113	7.155607	31.57311
1127	5.54735	3.0979455	97.2269	7.155635	31.57250
1128	5.54755	3.0979639	97.0363	7.155595	31.57262
1129	5.54780	3.0979454	96.8461	7.155569	31.57226
1130	5.54800	3.0979453	96.6556	7.155539	31.57217
1131	5.54825	3.0979330	96.4713	7.155509	31.57188
1132	5.54861	3.0979452	96.2809	7.155453	31.57178
1133	5.54896	3.0979206	96.0965	7.155417	31.57126
1134	5.54941	3.0979328	95.9059	7.155349	31.57107
1135	5.54991	3.0979450	95.7244	7.155274	31.57082
1136	5.55011	3.0979450	95.5311	7.155244	31.57073
1137	5.55031	3.0979326	95.3437	7.155220	31.57049
1138	5.55051	3.0979449	95.1563	7.155184	31.57053
1139	5.55056	3.0979202	94.9687	7.155186	31.57029
1140	5.55061	3.0978956	94.7815	7.155189	31.57006
1141	5.55041	3.0978587	94.5879	7.155230	31.56993
1142	5.55026	3.0978279	94.4003	7.155261	31.56981
1143	5.55051	3.0978647	94.2191	7.155205	31.57008
1144	5.55071	3.0978585	94.0226	7.155178	31.56991
1145	5.55086	3.0978339	93.8383	7.155168	31.56958
1146	5.55117	3.0978584	93.6448	7.155112	31.56967
1147	5.55152	3.0978890	93.4573	7.155047	31.56978
1148	5.55172	3.0978644	93.2637	7.155030	31.56941
1149	5.55202	3.0978275	93.0762	7.155006	31.56880
1150	5.55187	3.0977722	92.8979	7.155051	31.56840
1151	5.55162	3.0977414	92.7104	7.155095	31.56838
1152	5.55122	3.0975939	92.5111	7.155220	31.56719
1153	5.55102	3.0974464	92.3205	7.155319	31.56581
1154	5.55081	3.0973727	92.1239	7.155380	31.56526
1155	5.55056	3.0971822	91.9305	7.155508	31.56344
1156	5.55016	3.0970040	91.7401	7.155649	31.56190
1157	5.54981	3.0968750	91.5434	7.155758	31.56087
1158	5.54936	3.0967091	91.3500	7.155899	31.55952
1159	5.54901	3.0966538	91.1626	7.155969	31.55931
1160	5.54886	3.0965616	90.9691	7.156033	31.55851
1161	5.54866	3.0964755	90.7786	7.156100	31.55782
1162	5.54820	3.0964202	90.5850	7.156183	31.55771
1163	5.54780	3.0963465	90.4007	7.156269	31.55735
1164	5.54750	3.0962420	90.2042	7.156358	31.55655
1165	5.54710	3.0961928	90.0045	7.156431	31.55646
1166	5.54665	3.0961252	89.8171	7.156521	31.55622
1167	5.54610	3.0960637	89.6054	7.156619	31.55614
1168	5.54575	3.0960022	89.4000	7.156692	31.55588
1169	5.54544	3.0959162	89.1821	7.156771	31.55530
1170	5.54494	3.0958302	88.9614	7.156876	31.55490
1171	5.54439	3.0957257	88.7406	7.156997	31.55435
1172	5.54409	3.0956519	88.5289	7.157069	31.55390
1173	5.54414	3.0955905	88.3053	7.157090	31.55327
1174	5.54469	3.0956027	88.0906	7.157008	31.55299
1175	5.54580	3.0955658	87.8700	7.156882	31.55165
1176	5.54665	3.0955043	87.6459	7.156800	31.55026
1177	5.54720	3.0954428	87.4223	7.156757	31.54916
1178	5.54745	3.0954181	87.1744	7.156732	31.54877
1179	5.54750	3.0950926	86.9383	7.156893	31.54516
1180	5.54705	3.0948838	86.7208	7.157056	31.54334
1181	5.54640	3.0947977	86.5000	7.157180	31.54308
1182	5.54570	3.0946687	86.2821	7.157334	31.54239
1183	5.54519	3.0946257	86.0644	7.157416	31.54248
1184	5.54499	3.0946256	85.8435	7.157436	31.54278
1185	5.54504	3.0945764	85.6168	7.157451	31.54229
1186	5.54489	3.0944781	85.3992	7.157517	31.54142
1187	5.54429	3.0943860	85.1875	7.157638	31.54105
1188	5.54394	3.0943245	84.9668	7.157711	31.54079
1189	5.54379	3.0942692	84.7520	7.157754	31.54042
1190	5.54374	3.0942138	84.5221	7.157785	31.53995
1191	5.54379	3.0942015	84.3075	7.157780	31.53987
1192	5.54429	3.0941830	84.0987	7.157721	31.53929
1193	5.54514	3.0942382	83.8781	7.157578	31.53922
1194	5.54600	3.0942627	83.6545	7.157450	31.53880
1195	5.54705	3.0942687	83.4335	7.157307	31.53799
1196	5.54805	3.0943239	83.2219	7.157145	31.53777
1197	5.54906	3.0943607	82.9984	7.156992	31.53735
1198	5.55031	3.0944159	82.7773	7.156797	31.53691
1199	5.55132	3.0944833	82.5444	7.156628	31.53684
1200	5.55217	3.0944771	82.3177	7.156517	31.53608
1201	5.55277	3.0945016	82.0939	7.156422	31.53590
1202	5.55363	3.0945138	81.8792	7.156301	31.53534
1203	5.55413	3.0945015	81.6462	7.156238	31.53484
1204	5.55473	3.0945935	81.4255	7.156107	31.53542
1205	5.55523	3.0946057	81.1927	7.156031	31.53520
1206	5.55598	3.0946241	80.9749	7.155920	31.53480
1207	5.55669	3.0946240	80.7571	7.155826	31.53425
1208	5.55744	3.0946055	80.5334	7.155734	31.53344
1209	5.55819	3.0946484	80.3036	7.155610	31.53333
1210	5.55865	3.0946975	80.0799	7.155521	31.53357
1211	5.55905	3.0946790	79.8529	7.155474	31.53309
1212	5.55965	3.0946789	79.6261	7.155392	31.53264
1213	5.56010	3.0946972	79.4023	7.155319	31.53253
1214	5.56035	3.0947094	79.1754	7.155276	31.53254
1215	5.56060	3.0947094	78.9425	7.155238	31.53242
1216	5.56100	3.0946663	78.7128	7.155205	31.53167
1217	5.56156	3.0947092	78.4828	7.155106	31.53174
1218	5.56226	3.0947092	78.2592	7.155011	31.53119
1219	5.56281	3.0947275	78.0292	7.154926	31.53099
1220	5.56331	3.0947397	77.7994	7.154850	31.53077
1221	5.56377	3.0947396	77.5632	7.154787	31.53046
1222	5.56427	3.0947580	77.3457	7.154708	31.53030
1223	5.56452	3.0948255	77.1069	7.154634	31.53094
1224	5.56487	3.0948499	76.8588	7.154571	31.53101
1225	5.56512	3.0947700	76.6290	7.154576	31.52998
1226	5.56527	3.0947393	76.4082	7.154568	31.52960
1227	5.56537	3.0947576	76.1812	7.154540	31.52982
1228	5.56567	3.0947698	75.9574	7.154490	31.52979
1229	5.56623	3.0947391	75.7185	7.154430	31.52904
1230	5.56658	3.0948188	75.5008	7.154338	31.52971
1231	5.56673	3.0948249	75.2799	7.154311	31.52975
1232	5.56673	3.0948862	75.0532	7.154273	31.53055
1233	5.56668	3.0949107	74.8325	7.154262	31.53098
1234	5.56663	3.0950887	74.6024	7.154169	31.53314
1235	5.56663	3.0954141	74.3697	7.153991	31.53692
1236	5.56693	3.0955307	74.1488	7.153886	31.53806
1237	5.56693	3.0958562	73.9281	7.153709	31.54183
1238	5.56698	3.0959666	73.6951	7.153639	31.54314
1239	5.56763	3.0960587	73.4650	7.153502	31.54368
1240	5.56813	3.0960586	73.2415	7.153432	31.54332
1241	5.56864	3.0960278	73.0143	7.153379	31.54261
1242	5.56954	3.0960892	72.7816	7.153226	31.54257
1243	5.57024	3.0960891	72.5579	7.153131	31.54201
1244	5.57039	3.0960583	72.3402	7.153123	31.54163
1245	5.56969	3.0960030	72.1194	7.153237	31.54177
1246	5.56899	3.0959722	71.8925	7.153338	31.54219
1247	5.56818	3.0959353	71.6624	7.153455	31.54264
1248	5.56718	3.0958800	71.4356	7.153608	31.54307
1249	5.56693	3.0958799	71.2091	7.153635	31.54341
1250	5.56653	3.0958430	70.9790	7.153701	31.54349
1251	5.56593	3.0957631	70.7584	7.153815	31.54326
1252	5.56572	3.0957078	70.5284	7.153865	31.54293
1253	5.56582	3.0955972	70.3074	7.153905	31.54170
1254	5.56598	3.0955848	70.0775	7.153887	31.54153
1255	5.56527	3.0954374	69.8539	7.154050	31.54063
1256	5.56502	3.0954127	69.6300	7.154090	31.54070
1257	5.56487	3.0953820	69.3970	7.154120	31.54061
1258	5.56372	3.0953451	69.1794	7.154283	31.54138
1259	5.56286	3.0953204	68.9585	7.154400	31.54201
1260	5.56221	3.0952344	68.7347	7.154524	31.54176
1261	5.56141	3.0951607	68.5138	7.154661	31.54179
1262	5.56121	3.0950869	68.2960	7.154720	31.54125
1263	5.56151	3.0950868	68.0662	7.154677	31.54108
1264	5.56206	3.0951298	67.8452	7.154578	31.54115
1265	5.56161	3.0951174	67.6123	7.154637	31.54155
1266	5.56070	3.0950559	67.3885	7.154780	31.54181
1267	5.55990	3.0950375	67.1618	7.154888	31.54246
1268	5.55940	3.0950006	66.9380	7.154966	31.54263
1269	5.55915	3.0949698	66.6960	7.155009	31.54263
1270	5.55824	3.0949759	66.4628	7.155116	31.54366
1271	5.55749	3.0950004	66.2391	7.155195	31.54475
1272	5.55739	3.0950371	66.0123	7.155183	31.54537
1273	5.55865	3.0949695	65.7884	7.155053	31.54354
1274	5.56025	3.0949080	65.5615	7.154875	31.54145
1275	5.56040	3.0949387	65.3437	7.154834	31.54176
1276	5.56005	3.0949386	65.1230	7.154874	31.54219
1277	5.55930	3.0949692	64.8871	7.154949	31.54336
1278	5.55849	3.0950060	64.6602	7.155027	31.54464
1279	5.55809	3.0949998	64.4393	7.155077	31.54505
1280	5.55865	3.0950305	64.2186	7.154985	31.54498
1281	5.55859	3.0950365	63.9947	7.154983	31.54521
1282	5.55865	3.0951163	63.7739	7.154930	31.54617
1283	5.55849	3.0950855	63.5501	7.154960	31.54607
1284	5.55870	3.0951284	63.3172	7.154906	31.54648
1285	5.55875	3.0951161	63.0901	7.154901	31.54640
1286	5.55849	3.0951590	62.8723	7.154906	31.54722
1287	5.55789	3.0952019	62.6423	7.154955	31.54839
1288	5.55769	3.0952019	62.4215	7.154976	31.54868
1289	5.55784	3.0952202	62.1917	7.154941	31.54886
1290	5.55784	3.0952631	61.9679	7.154914	31.54945
1291	5.55804	3.0952631	61.7380	7.154883	31.54937
1292	5.55799	3.0952814	61.5202	7.154875	31.54973
1293	5.55789	3.0953182	61.2962	7.154863	31.55035
1294	5.55784	3.0953796	61.0724	7.154832	31.55119
1295	5.55809	3.0954041	60.8547	7.154782	31.55134
1296	5.55875	3.0954408	60.6308	7.154674	31.55125
1297	5.55915	3.0954653	60.4039	7.154604	31.55126
1298	5.55960	3.0955267	60.1800	7.154509	31.55164
1299	5.55990	3.0956126	59.9532	7.154420	31.55243
1300	5.56035	3.0957046	59.7320	7.154308	31.55315
1301	5.56126	3.0957782	59.5024	7.154149	31.55325
1302	5.56286	3.0957597	59.2815	7.153948	31.55164
1303	5.56487	3.0958395	59.0576	7.153644	31.55076
1304	5.56643	3.0959377	58.8277	7.153388	31.55052
1305	5.56793	3.0960850	58.5979	7.153112	31.55088
1306	5.56974	3.0961831	58.3710	7.152824	31.55040
1307	5.57215	3.0962629	58.1532	7.152469	31.54914
1308	5.57441	3.0963795	57.9353	7.152113	31.54844
1309	5.57667	3.0964285	57.7175	7.151794	31.54698
1310	5.57903	3.0964960	57.4965	7.151451	31.54563
1311	5.58210	3.0965819	57.2790	7.151010	31.54383
1312	5.58506	3.0966739	57.0457	7.150577	31.54221
1313	5.58802	3.0967291	56.8343	7.150165	31.54015
1314	5.59003	3.0968764	56.6012	7.149825	31.54004
1315	5.59174	3.0970176	56.3773	7.149527	31.54014
1316	5.59345	3.0969623	56.1596	7.149333	31.53802
1317	5.59476	3.0970850	55.9446	7.149097	31.53828
1318	5.59566	3.0971095	55.7239	7.148963	31.53782
1319	5.59772	3.0972323	55.5000	7.148630	31.53738
1320	5.60043	3.0972322	55.2759	7.148279	31.53494
1321	5.60345	3.0972321	55.0521	7.147889	31.53222
1322	5.60586	3.0973180	54.8223	7.147530	31.53104
1323	5.60747	3.0973916	54.6044	7.147281	31.53047
1324	5.60908	3.0974345	54.3807	7.147048	31.52955
1325	5.61059	3.0974345	54.1629	7.146851	31.52824
1326	5.61219	3.0974528	53.9419	7.146631	31.52705
1327	5.61400	3.0975510	53.7211	7.146343	31.52657
1328	5.61611	3.0976983	53.5001	7.145991	31.52636
1329	5.61838	3.0978211	53.2763	7.145632	31.52573
1330	5.62064	3.0979070	53.0586	7.145293	31.52468
1331	5.62320	3.0979622	52.8288	7.144932	31.52301
1332	5.62637	3.0980113	52.6076	7.144497	31.52071
1333	5.62959	3.0981709	52.3808	7.143997	31.51960
1334	5.63241	3.0982875	52.1569	7.143571	31.51838
1335	5.63527	3.0982874	51.9390	7.143200	31.51580
1336	5.63814	3.0981399	51.7151	7.142908	31.51157
1337	5.64080	3.0981091	51.4944	7.142579	31.50883
1338	5.64312	3.0982257	51.2675	7.142217	31.50809
1339	5.64483	3.0983178	51.0526	7.141946	31.50763
1340	5.64709	3.0983791	50.8287	7.141620	31.50631
1341	5.64941	3.0985203	50.6078	7.141245	31.50584
1342	5.65157	3.0986124	50.3900	7.140916	31.50496
1343	5.65393	3.0986307	50.1661	7.140600	31.50306
1344	5.65650	3.0986675	49.9452	7.140248	31.50118
1345	5.65942	3.0987288	49.7244	7.139839	31.49925
1346	5.66219	3.0988455	49.5064	7.139420	31.49808
1347	5.66450	3.0989068	49.2857	7.139088	31.49671
1348	5.66646	3.0989067	49.0649	7.138833	31.49498
1349	5.66853	3.0988452	48.8349	7.138597	31.49247
1350	5.67049	3.0988144	48.6230	7.138358	31.49039
1351	5.67220	3.0988450	48.3991	7.138119	31.48924
1352	5.67366	3.0988757	48.1782	7.137912	31.48833
1353	5.67532	3.0988141	47.9635	7.137728	31.48619
1354	5.67754	3.0986359	47.7396	7.137534	31.48222
1355	5.67885	3.0985682	47.5217	7.137398	31.48034
1356	5.68011	3.0985497	47.3039	7.137242	31.47906
1357	5.68232	3.0985189	47.0890	7.136971	31.47675
1358	5.68444	3.0985373	46.8742	7.136688	31.47509
1359	5.68665	3.0983713	46.6563	7.136488	31.47126
1360	5.68851	3.0982852	46.4297	7.136290	31.46866
1361	5.68982	3.0981930	46.2085	7.136167	31.46651
1362	5.69058	3.0982851	45.9908	7.136018	31.46694
1363	5.69169	3.0981683	45.7669	7.135933	31.46470
1364	5.69259	3.0981621	45.5521	7.135816	31.46389
1365	5.69310	3.0981374	45.3223	7.135759	31.46325
1366	5.69400	3.0981312	45.1104	7.135642	31.46244
1367	5.69567	3.0983461	44.8864	7.135313	31.46341
1368	5.69778	3.0983706	44.6624	7.135026	31.46182
1369	5.70010	3.0984750	44.4476	7.134671	31.46093
1370	5.70247	3.0987268	44.2269	7.134232	31.46166
1371	5.70564	3.0988434	44.0089	7.133762	31.46011
1372	5.70881	3.0989969	43.7940	7.133272	31.45897
1373	5.71254	3.0990766	43.5702	7.132751	31.45650
1374	5.71647	3.0991933	43.3583	7.132185	31.45424
1375	5.72050	3.0991870	43.1465	7.131670	31.45051
1376	5.72418	3.0993159	42.9257	7.131129	31.44863
1377	5.72811	3.0995186	42.7079	7.130518	31.44735
1378	5.73194	3.0996844	42.4808	7.129939	31.44575
1379	5.73648	3.0998747	42.2783	7.129257	31.44375
1380	5.74112	3.1000467	42.0482	7.128572	31.44146
1381	5.74611	3.1001510	41.8394	7.127878	31.43808
1382	5.75201	3.1002553	41.6157	7.127068	31.43386
1383	5.75796	3.1004580	41.4098	7.126200	31.43069
1384	5.76331	3.1005501	41.1950	7.125468	31.42684
1385	5.76775	3.1006360	40.9741	7.124854	31.42378
1386	5.77229	3.1008694	40.7593	7.124150	31.42227
1387	5.77738	3.1008938	40.5384	7.123484	31.41790
1388	5.78177	3.1010166	40.3296	7.122858	31.41529
1389	5.78435	3.1010780	40.1057	7.122494	31.41369
1390	5.78702	3.1011086	39.8910	7.122133	31.41165
1391	5.78995	3.1012560	39.6730	7.121679	31.41068
1392	5.79278	3.1012867	39.4613	7.121300	31.40850
1393	5.79636	3.1014218	39.2463	7.120769	31.40678
1394	5.79979	3.1015507	39.0375	7.120261	31.40513
1395	5.80302	3.1018149	38.8134	7.119708	31.40519
1396	5.80666	3.1017964	38.6017	7.119251	31.40170
1397	5.81065	3.1019007	38.3809	7.118685	31.39927
1398	5.81565	3.1021956	38.1690	7.117892	31.39802
1399	5.82030	3.1021648	37.9573	7.117314	31.39346
1400	5.82494	3.1022876	37.7423	7.116655	31.39061
1401	5.83005	3.1023428	37.5305	7.115975	31.38659
1402	5.83414	3.1025394	37.3157	7.115348	31.38509
1403	5.83848	3.1026991	37.1100	7.114709	31.38294
1404	5.84248	3.1029141	36.8891	7.114086	31.38174
1405	5.84531	3.1029632	36.6680	7.113696	31.37977
1406	5.84849	3.1032889	36.4352	7.113118	31.38057
1407	5.85238	3.1030982	36.2143	7.112719	31.37492
1408	5.85754	3.1032886	35.9933	7.111961	31.37237
1409	5.85895	3.1031656	35.7845	7.111841	31.36978
1410	5.85663	3.1032516	35.5667	7.112086	31.37301
1411	5.85951	3.1031962	35.3457	7.111745	31.36982
1412	5.86310	3.1034051	35.1277	7.111176	31.36893
1413	5.86694	3.1034419	34.9190	7.110665	31.36587
1414	5.87129	3.1035770	34.7012	7.110039	31.36345
1415	5.87600	3.1036691	34.4772	7.109390	31.36022
1416	5.88070	3.1038165	34.2686	7.108713	31.35760
1417	5.88561	3.1039332	34.0686	7.108027	31.35445
1418	5.89021	3.1039331	33.8540	7.107439	31.35028
1419	5.89269	3.1040314	33.6329	7.107069	31.34919
1420	5.89441	3.1041973	33.4179	7.106760	31.34955
1421	5.89851	3.1043755	33.2001	7.106144	31.34784
1422	5.90403	3.1044983	32.9914	7.105377	31.34420
1423	5.90853	3.1046089	32.7826	7.104745	31.34136
1424	5.91243	3.1045227	32.5587	7.104291	31.33689
1425	5.91764	3.1046209	32.3530	7.103576	31.33326
1426	5.92392	3.1047561	32.1350	7.102706	31.32906
1427	5.92974	3.1049957	31.9261	7.101841	31.32644
1428	5.93557	3.1051800	31.7235	7.101004	31.32320
1429	5.94094	3.1053459	31.5056	7.100234	31.32018
1430	5.94767	3.1056409	31.3027	7.099225	31.31733
1431	5.95639	3.1058498	31.0819	7.098010	31.31171
1432	5.96506	3.1059296	30.8699	7.096869	31.30468
1433	5.97601	3.1063476	30.6580	7.095264	31.29932
1434	5.98863	3.1064089	30.4585	7.093634	31.28843
1435	6.00019	3.1067039	30.2496	7.092016	31.28113
1436	6.01095	3.1068205	30.0376	7.090594	31.27260
1437	6.01811	3.1071463	29.8289	7.089518	31.26972
1438	6.02470	3.1074845	29.6202	7.088507	31.26749
1439	6.03374	3.1075274	29.4112	7.087340	31.25974
1440	6.04633	3.1078531	29.2087	7.085580	31.25184
1441	6.05903	3.1078591	28.9998	7.083971	31.24031
1442	6.06685	3.1081173	28.7941	7.082848	31.23607
1443	6.07696	3.1082401	28.5821	7.081506	31.22822
1444	6.08789	3.1084183	28.3824	7.080033	31.22023
1445	6.09486	3.1089164	28.1765	7.078896	31.21945
1446	6.10192	3.1090639	27.9525	7.077925	31.21469
1447	6.11143	3.1091991	27.7378	7.076654	31.20755
1448	6.12013	3.1093281	27.5289	7.075488	31.20108
1449	6.13102	3.1097708	27.3172	7.073887	31.19609
1450	6.14400	3.1095430	27.1174	7.072367	31.18173
1451	6.15260	3.1099182	26.9024	7.071088	31.17809
1452	6.15774	3.1100657	26.6815	7.070361	31.17511
1453	6.16416	3.1103178	26.4696	7.069421	31.17212
1454	6.17225	3.1104776	26.2428	7.068317	31.16657
1455	6.18076	3.1104221	26.0428	7.067272	31.15824
1456	6.18805	3.1101943	25.8190	7.066468	31.14914
1457	6.18637	3.1103911	25.6100	7.066574	31.15296
1458	6.19024	3.1103910	25.3984	7.066083	31.14951
1459	6.19722	3.1108954	25.1896	7.064944	31.14880
1460	6.20624	3.1108460	24.9807	7.063832	31.14008
1461	6.21720	3.1111596	24.7751	7.062292	31.13361
1462	6.22608	3.1111595	24.5600	7.061174	31.12558
1463	6.23464	3.1115039	24.3541	7.059918	31.12164
1464	6.24199	3.1116637	24.1454	7.058911	31.11679
1465	6.24791	3.1118975	23.9456	7.058045	31.11405
1466	6.25357	3.1120327	23.7368	7.057261	31.11046
1467	6.25929	3.1124572	23.5190	7.056324	31.11003
1468	6.26730	3.1126047	23.3161	7.055240	31.10443
1469	6.27563	3.1129061	23.1072	7.054039	31.10025
1470	6.28420	3.1128752	22.9016	7.052976	31.09217
1471	6.29181	3.1128997	22.6958	7.052006	31.08558
1472	6.30106	3.1133427	22.4868	7.050618	31.08213
1473	6.31317	3.1136133	22.2840	7.048960	31.07415
1474	6.32135	3.1139639	22.0691	7.047754	31.07066
1475	6.32718	3.1143208	21.8664	7.046839	31.06938
1476	6.33474	3.1146223	21.6575	7.045735	31.06590
1477	6.34702	3.1148806	21.4517	7.044065	31.05765
1478	6.35607	3.1151821	21.2339	7.042776	31.05283
1479	6.36467	3.1154651	21.0340	7.041554	31.04821
1480	6.37946	3.1157727	20.8252	7.039546	31.03822
1481	6.39231	3.1161235	20.6196	7.037759	31.03048
1482	6.40326	3.1162464	20.4076	7.036324	31.02196
1483	6.41469	3.1166280	20.1987	7.034701	31.01587
1484	6.42745	3.1170711	19.9929	7.032881	31.00924
1485	6.43831	3.1175573	19.7931	7.031276	31.00481
1486	6.45410	3.1178404	19.5813	7.029160	30.99368
1487	6.46939	3.1181419	19.3785	7.027099	30.98321
1488	6.48242	3.1184065	19.1667	7.025338	30.97439
1489	6.49648	3.1187450	18.9608	7.023412	30.96545
1490	6.51034	3.1191451	18.7489	7.021481	30.95737
1491	6.52267	3.1193235	18.5493	7.019853	30.94826
1492	6.53186	3.1195266	18.3462	7.018603	30.94225
1493	6.54404	3.1200377	18.1405	7.016828	30.93693
1494	6.56095	3.1203639	17.9379	7.014558	30.92530
1495	6.57761	3.1204499	17.7259	7.012440	30.91127
1496	6.58810	3.1209672	17.5232	7.010874	30.90755
1497	6.59958	3.1216631	17.3173	7.009097	30.90490
1498	6.61543	3.1221681	17.1147	7.006873	30.89620
1499	6.63613	3.1227840	16.9057	7.003993	30.88436
1500	6.65220	3.1233568	16.7059	7.001711	30.87622
1501	6.67322	3.1239234	16.4759	6.998818	30.86356
1502	6.70241	3.1245763	16.2759	6.994875	30.84450
1503	6.73590	3.1246314	16.0611	6.990699	30.81507
1504	6.75336	3.1250749	15.8524	6.988317	30.80432
1505	6.76942	3.1256417	15.6495	6.986046	30.79617
1506	6.79108	3.1265783	15.4437	6.982904	30.78703
1507	6.81750	3.1273671	15.2317	6.979248	30.77202
1508	6.84664	3.1281374	15.0261	6.975270	30.75440
1509	6.88341	3.1290310	14.8201	6.970295	30.73131
1510	6.91534	3.1294623	14.6114	6.966148	30.70755
1511	6.94610	3.1300971	14.4053	6.962049	30.68708
1512	6.97034	3.1309602	14.1964	6.958642	30.67492
1513	6.98290	3.1315891	13.9877	6.956786	30.67063
1514	6.99895	3.1322551	13.7790	6.954486	30.66365
1515	7.02364	3.1329272	13.5792	6.951124	30.64904
1516	7.04585	3.1339695	13.3641	6.947888	30.64066
1517	7.06723	3.1349318	13.1552	6.944794	30.63216
1518	7.08092	3.1356104	12.9404	6.942783	30.62742
1519	7.09665	3.1359990	12.7374	6.940665	30.61775
1520	7.12947	3.1370108	12.5347	6.936154	30.59964
1521	7.16503	3.1380473	12.3320	6.931302	30.57940
1522	7.19567	3.1386519	12.1294	6.927265	30.55889
1523	7.23207	3.1399357	11.9112	6.922200	30.54063
1524	7.26532	3.1405033	11.7085	6.917871	30.51747
1525	7.29613	3.1417627	11.4994	6.913509	30.50392
1526	7.32430	3.1431891	11.2907	6.909394	30.49451
1527	7.36349	3.1442078	11.0910	6.904139	30.47103
1528	7.40965	3.1455541	10.8729	6.897889	30.44498
1529	7.44388	3.1466598	10.6641	6.893208	30.42686
1530	7.48103	3.1478891	10.4582	6.888119	30.40753
1531	7.51522	3.1498357	10.2616	6.883055	30.39847
1532	7.55502	3.1502804	10.0464	6.878031	30.36851
1533	7.59523	3.1507621	9.8497	6.872947	30.33862
1534	7.63700	3.1519982	9.6470	6.867322	30.31545
1535	7.65654	3.1535810	9.4380	6.864219	30.31537
1536	7.68458	3.1554115	9.2323	6.859977	30.31050
1537	7.72439	3.1556523	9.0234	6.855075	30.27854
1538	7.77001	3.1566416	8.8297	6.849129	30.24952
1539	7.80841	3.1586521	8.6206	6.843578	30.23762
1540	7.84405	3.1605208	8.4149	6.838433	30.22663
1541	7.88959	3.1619069	8.2090	6.832335	30.20199
1542	7.93103	3.1625688	8.0122	6.827071	30.17327
1543	7.97071	3.1635900	7.8184	6.821858	30.14992
1544	7.99786	3.1654537	7.6157	6.817754	30.14626
1545	8.02503	3.1662709	7.4128	6.814136	30.13157
1546	8.06987	3.1680173	7.2100	6.807991	30.11149
1547	8.10082	3.1677753	7.0103	6.804419	30.08246
1548	8.11876	3.1690452	6.8225	6.801700	30.08049
1549	8.11828	3.1683821	6.6349	6.802058	30.07402
1550	8.11876	3.1702286	6.4442	6.801149	30.09308
1551	8.06981	3.1705513	6.2385	6.806810	30.13860
1552	8.07152	3.1710346	6.0475	6.806381	30.14230
1553	8.10247	3.1711582	5.8508	6.802643	30.11708
1554	8.11796	3.1716724	5.6601	6.800565	30.10927
1555	8.11417	3.1715794	5.4691	6.801054	30.11163
1556	8.08662	3.1727759	5.2756	6.803770	30.14796
1557	8.08689	3.1729370	5.0819	6.803660	30.14951
1558	8.10477	3.1728810	4.9002	6.801560	30.13363
1559	8.12656	3.1732402	4.7064	6.798805	30.11877
1560	8.16954	3.1723657	4.5219	6.794108	30.07281
1561	8.19843	3.1717021	4.3371	6.790985	30.04121
1562	8.20228	3.1727744	4.1557	6.790035	30.04922
1563	8.19484	3.1716091	3.9590	6.791446	30.04346
1564	8.19414	3.1703075	3.7680	6.792121	30.03050
1565	8.21320	3.1712431	3.5772	6.789431	30.02409
1566	8.22648	3.1716086	3.3866	6.787688	30.01665
1567	8.24014	3.1690738	3.1958	6.787226	29.97854
1568	8.26270	3.1678653	2.9990	6.785103	29.94675
1569	8.27455	3.1661183	2.8053	6.784494	29.91848
1570	8.26334	3.1650902	2.6086	6.786286	29.91735
1571	8.22391	3.1622608	2.4147	6.792250	29.92140
1572	8.18002	3.1624097	2.2241	6.797387	29.96046
1573	8.14056	3.1610296	2.0333	6.802704	29.97976
1574	8.12068	3.1607140	1.8274	6.805209	29.99352
1575	8.12619	3.1558253	1.6337	6.806799	29.93760
1576	8.13308	3.1528563	1.4431	6.807340	29.90065
1577	8.13190	3.1509642	1.2553	6.808346	29.88188
1578	8.12768	3.1494620	1.0645	6.809537	29.86980
1579	8.12304	3.1481763	0.8708	6.810678	29.86035
1580	8.11737	3.1470392	0.6800	6.811873	29.85333
1581	8.11043	3.1453646	0.4803	6.813469	29.84175
1582	8.10643	3.1465571	0.3017	6.813394	29.85775
1583	8.10285	3.1704809	0.1261	6.802802	30.11213
1584	8.11267	3.1897267	0.0865	6.792782	30.30598
1585	8.27428	3.2081189	0.0988	6.765324	30.35939
1586	8.56948	3.2326726	0.0958	6.719780	30.36134
1587	8.93042	3.2432455	0.0960	6.673430	30.16249
1588	9.31963	3.2499078	0.0930	6.626067	29.90286
1589	9.60736	2.3322863	0.0961	6.985802	20.58912
1590	9.75436	0.7262870	0.0993	7.649509	5.79778
1591	9.73215	0.7708489	0.0933	7.634696	6.18418
1592	9.67837	0.7156116	0.0932	7.667022	5.71844
1593	9.64421	0.9153354	0.0905	7.588712	7.45667
1594	9.60819	0.8388661	0.0935	7.627162	6.79556
1595	9.56428	0.7154281	0.0933	7.686788	5.73497
1596	9.53835	0.5584849	0.0905	7.757066	4.40245
1597	9.46936	0.5479275	0.0937	7.773701	4.32184
1598	9.41805	0.4283358	0.1030	7.832610	3.32830
1599	9.40579	0.3828910	0.0998	7.853568	2.95490
1600	9.39774	0.2966904	0.0938	7.890237	2.25460
1601	9.38869	0.3064168	0.0940	7.887956	2.33359
1602	9.37992	0.3378602	0.1002	7.876754	2.58899
1603	9.37049	0.3258508	0.0941	7.883389	2.49210
1604	9.36062	0.4184443	0.0972	7.847110	3.25171
1605	9.35103	0.3473637	0.0943	7.878159	2.66851
1606	9.34106	0.3938913	0.1033	7.860828	3.05073
1607	9.33081	0.3994597	0.1005	7.860392	3.09751
1608	9.32019	0.3620746	0.0975	7.877768	2.79108
1609	9.30934	0.3634619	0.1005	7.879184	2.80329
1610	9.29850	0.3353381	0.1005	7.892743	2.57430
1611	9.28749	0.3538184	0.1008	7.887166	2.72600
1612	9.27632	0.2886171	0.1007	7.915949	2.19705
1613	9.26500	0.2251697	0.0979	7.943744	1.69032
1614	9.25340	0.3306470	0.1038	7.902980	2.53928
1615	9.24163	0.3426844	0.1009	7.900191	2.63837
1616	9.22977	0.3785662	0.0979	7.887528	2.93374
1617	9.21790	0.3239144	0.0980	7.912305	2.48691
1618	9.20555	0.2614878	0.1011	7.940153	1.98296
1619	9.19281	0.2761020	0.0981	7.936568	2.10117
1620	9.18025	0.3411476	0.0982	7.912152	2.63030
1621	9.16735	0.3203659	0.1013	7.923124	2.46148
1622	9.15600	0.3606524	0.1013	7.908538	2.79216
1623	9.14421	0.3818869	0.1014	7.901866	2.96817
1624	9.13413	0.5226142	0.1015	7.844417	4.14745
1625	9.12931	0.4308865	0.1014	7.884073	3.37643
1626	9.12257	0.3894345	0.1017	7.902696	3.03242
